SpectraSuite Data File
++++++++++++++++++++++++++++++++++++
Date: Wed Jan 25 17:54:23 EET 2017
User: TheoProf
Spectrometer Serial Number: USB4C02475
Spectrometer Channel: 0
Integration Time (usec): 64136
Spectra Averaged: 1
Boxcar Smoothing: 0
Correct for Electrical Dark: No
Strobe/Lamp Enabled: No
Correct for Detector Non-linearity: No
Correct for Stray Light: No
Number of Pixels in Spectrum: 3648
>>>>>Begin Spectral Data<<<<<
344.91	1222.637
345.13	1222.637
345.35	1222.637
345.57	1218.541
345.79	1234.925
346.00	1560.552
346.22	1464.298
346.44	1363.947
346.66	1492.969
346.87	1351.659
347.09	1382.379
347.31	1425.386
347.53	1538.025
347.74	1488.873
347.96	1447.914
348.18	1421.290
348.40	1337.324
348.61	1433.578
348.83	1421.290
349.05	1503.209
349.27	1456.106
349.48	1456.106
349.70	1468.394
349.92	1458.154
350.14	1439.722
350.35	1466.346
350.57	1548.264
350.79	1495.017
351.01	1613.799
351.22	1449.962
351.44	1513.449
351.66	1331.180
351.87	1511.401
352.09	1478.633
352.31	1562.600
352.53	1538.025
352.74	1529.833
352.96	1497.065
353.18	1353.707
353.40	1447.914
353.61	1499.113
353.83	1476.585
354.05	1464.298
354.26	1499.113
354.48	1488.873
354.70	1431.530
354.92	1525.737
355.13	1478.633
355.35	1544.168
355.57	1517.545
355.78	1474.538
356.00	1519.593
356.22	1419.242
356.44	1591.272
356.65	1546.216
356.87	1480.681
357.09	1531.881
357.30	1556.456
357.52	1515.497
357.74	1558.504
357.95	1404.907
358.17	1474.538
358.39	1501.161
358.60	1433.578
358.82	1433.578
359.04	1454.058
359.26	1505.257
359.47	1470.442
359.69	1619.943
359.91	1484.777
360.12	1527.785
360.34	1482.729
360.56	1396.715
360.77	1384.427
360.99	1533.929
361.21	1478.633
361.42	1521.641
361.64	1468.394
361.86	1554.408
362.07	1574.888
362.29	1499.113
362.51	1529.833
362.72	1478.633
362.94	1474.538
363.16	1480.681
363.37	1566.696
363.59	1482.729
363.81	1437.674
364.02	1529.833
364.24	1505.257
364.46	1490.921
364.67	1470.442
364.89	1552.360
365.11	1515.497
365.32	1503.209
365.54	1521.641
365.76	1572.840
365.97	1511.401
366.19	1437.674
366.41	1433.578
366.62	1505.257
366.84	1396.715
367.05	1535.977
367.27	1449.962
367.49	1374.187
367.70	1476.585
367.92	1486.825
368.14	1523.689
368.35	1533.929
368.57	1505.257
368.79	1511.401
369.00	1480.681
369.22	1452.010
369.43	1529.833
369.65	1544.168
369.87	1464.298
370.08	1525.737
370.30	1423.338
370.51	1413.098
370.73	1478.633
370.95	1513.449
371.16	1452.010
371.38	1470.442
371.60	1445.866
371.81	1513.449
372.03	1533.929
372.24	1425.386
372.46	1470.442
372.68	1423.338
372.89	1476.585
373.11	1542.120
373.32	1445.866
373.54	1548.264
373.76	1462.250
373.97	1429.482
374.19	1587.176
374.40	1589.224
374.62	1523.689
374.84	1540.072
375.05	1460.202
375.27	1597.416
375.48	1437.674
375.70	1419.242
375.92	1474.538
376.13	1480.681
376.35	1544.168
376.56	1437.674
376.78	1464.298
376.99	1501.161
377.21	1566.696
377.43	1437.674
377.64	1544.168
377.86	1466.346
378.07	1394.667
378.29	1538.025
378.51	1531.881
378.72	1507.305
378.94	1474.538
379.15	1460.202
379.37	1513.449
379.58	1484.777
379.80	1423.338
380.01	1531.881
380.23	1482.729
380.45	1521.641
380.66	1593.320
380.88	1449.962
381.09	1597.416
381.31	1527.785
381.52	1513.449
381.74	1495.017
381.95	1517.545
382.17	1521.641
382.39	1544.168
382.60	1499.113
382.82	1441.770
383.03	1468.394
383.25	1517.545
383.46	1529.833
383.68	1503.209
383.89	1628.135
384.11	1476.585
384.32	1433.578
384.54	1538.025
384.76	1497.065
384.97	1495.017
385.19	1456.106
385.40	1560.552
385.62	1550.312
385.83	1548.264
386.05	1452.010
386.26	1460.202
386.48	1515.497
386.69	1525.737
386.91	1435.626
387.12	1523.689
387.34	1538.025
387.55	1419.242
387.77	1488.873
387.98	1544.168
388.20	1585.128
388.41	1519.593
388.63	1486.825
388.84	1476.585
389.06	1544.168
389.27	1556.456
389.49	1503.209
389.70	1482.729
389.92	1523.689
390.13	1509.353
390.35	1490.921
390.56	1499.113
390.78	1552.360
390.99	1490.921
391.21	1535.977
391.42	1566.696
391.64	1486.825
391.85	1421.290
392.07	1419.242
392.28	1474.538
392.50	1591.272
392.71	1509.353
392.93	1464.298
393.14	1626.087
393.36	1621.991
393.57	1570.792
393.79	1490.921
394.00	1470.442
394.22	1482.729
394.43	1533.929
394.65	1589.224
394.86	1576.936
395.08	1499.113
395.29	1449.962
395.50	1593.320
395.72	1441.770
395.93	1679.334
396.15	1599.464
396.36	1535.977
396.58	1624.039
396.79	1525.737
397.01	1480.681
397.22	1515.497
397.44	1599.464
397.65	1525.737
397.87	1390.571
398.08	1607.655
398.29	1521.641
398.51	1591.272
398.72	1550.312
398.94	1621.991
399.15	1597.416
399.37	1609.703
399.58	1499.113
399.80	1533.929
400.01	1484.777
400.22	1603.560
400.44	1621.991
400.65	1683.430
400.87	1601.512
401.08	1658.855
401.30	1509.353
401.51	1519.593
401.72	1662.951
401.94	1515.497
402.15	1644.519
402.37	1550.312
402.58	1564.648
402.80	1529.833
403.01	1564.648
403.22	1562.600
403.44	1628.135
403.65	1527.785
403.87	1587.176
404.08	1710.054
404.30	1644.519
404.51	1609.703
404.72	1630.183
404.94	1642.471
405.15	1693.670
405.37	1613.799
405.58	1564.648
405.79	1595.368
406.01	1656.807
406.22	1591.272
406.44	1576.936
406.65	1708.006
406.86	1621.991
407.08	1558.504
407.29	1650.663
407.51	1626.087
407.72	1728.486
407.93	1664.999
408.15	1638.375
408.36	1644.519
408.58	1683.430
408.79	1648.615
409.00	1667.047
409.22	1718.246
409.43	1617.895
409.64	1695.718
409.86	1693.670
410.07	1693.670
410.29	1708.006
410.50	1671.142
410.71	1701.862
410.93	1724.390
411.14	1726.438
411.35	1697.766
411.57	1734.630
411.78	1736.678
412.00	1648.615
412.21	1777.637
412.42	1712.102
412.64	1716.198
412.85	1634.279
413.06	1810.404
413.28	1699.814
413.49	1753.061
413.70	1748.965
413.92	1671.142
414.13	1585.128
414.34	1699.814
414.56	1753.061
414.77	1732.582
414.98	1753.061
415.20	1728.486
415.41	1757.157
415.63	1777.637
415.84	1781.733
416.05	1781.733
416.27	1804.260
416.48	1810.404
416.69	1761.253
416.91	1789.925
417.12	1683.430
417.33	1816.548
417.55	1748.965
417.76	1820.644
417.97	1773.541
418.19	1820.644
418.40	1744.869
418.61	1826.788
418.83	1820.644
419.04	1794.021
419.25	1859.556
419.46	1800.165
419.68	1734.630
419.89	1789.925
420.10	1820.644
420.32	1853.412
420.53	1826.788
420.74	1873.891
420.96	1814.500
421.17	1822.692
421.38	1892.323
421.60	1839.076
421.81	1845.220
422.02	1863.652
422.23	1871.843
422.45	1873.891
422.66	1808.356
422.87	1908.707
423.09	1914.851
423.30	1812.452
423.51	1896.419
423.73	1781.733
423.94	1918.947
424.15	1830.884
424.36	1959.906
424.58	1945.570
424.79	1974.242
425.00	1918.947
425.22	1908.707
425.43	1886.179
425.64	1912.803
425.85	1912.803
426.07	2035.681
426.28	1978.338
426.49	1923.043
426.71	2086.880
426.92	2037.729
427.13	1980.386
427.34	2041.825
427.56	2070.496
427.77	1914.851
427.98	1912.803
428.19	1918.947
428.41	1949.666
428.62	1972.194
428.83	2086.880
429.04	2023.393
429.26	2074.592
429.47	1990.626
429.68	2043.873
429.89	2009.057
430.11	2142.175
430.32	2070.496
430.53	2150.367
430.74	2019.297
430.96	2086.880
431.17	2023.393
431.38	2064.352
431.59	2072.544
431.81	2162.655
432.02	2138.079
432.23	2256.862
432.44	2148.319
432.66	2142.175
432.87	2113.504
433.08	2242.526
433.29	2176.991
433.51	2174.943
433.72	2211.806
433.93	2162.655
434.14	2195.422
434.35	2269.149
434.57	2297.821
434.78	2211.806
434.99	2263.005
435.20	2394.075
435.42	2338.780
435.63	2432.987
435.84	2537.433
436.05	2453.467
436.26	2461.658
436.48	2445.275
436.69	2308.061
436.90	2408.411
437.11	2385.884
437.32	2322.397
437.54	2318.301
437.75	2344.924
437.96	2435.035
438.17	2269.149
438.38	2260.958
438.60	2428.891
438.81	2346.972
439.02	2383.836
439.23	2371.548
439.44	2373.596
439.66	2435.035
439.87	2385.884
440.08	2277.341
440.29	2400.219
440.50	2381.788
440.72	2611.160
440.93	2447.323
441.14	2424.795
441.35	2418.651
441.56	2480.090
441.77	2541.529
441.99	2559.961
442.20	2453.467
442.41	2471.898
442.62	2494.426
442.83	2541.529
443.04	2564.057
443.26	2594.776
443.47	2711.511
443.68	2531.289
443.89	2523.098
444.10	2504.666
444.31	2588.632
444.53	2592.728
444.74	2609.112
444.95	2494.426
445.16	2596.824
445.37	2652.120
445.58	2641.880
445.80	2645.976
446.01	2605.016
446.22	2559.961
446.43	2582.489
446.64	2713.559
446.85	2670.551
447.06	2738.134
447.28	2725.846
447.49	2590.680
447.70	2629.592
447.91	2707.415
448.12	2762.710
448.33	2809.813
448.54	2684.887
448.76	2787.285
448.97	2815.957
449.18	2668.503
449.39	2699.223
449.60	2754.518
449.81	2740.182
450.02	2801.621
450.23	2887.636
450.45	2953.171
450.66	2973.651
450.87	2920.403
451.08	2899.924
451.29	2871.252
451.50	2914.260
451.71	2983.890
451.92	3098.577
452.13	2926.547
452.35	2975.699
452.56	2996.178
452.77	2867.156
452.98	2838.485
453.19	2947.027
453.40	2944.979
453.61	2918.355
453.82	2895.828
454.03	2963.411
454.25	2975.699
454.46	2899.924
454.67	3055.569
454.88	3293.134
455.09	3188.687
455.30	3092.433
455.51	3100.625
455.72	3057.617
455.93	2963.411
456.14	3110.865
456.35	3203.023
456.56	3026.898
456.78	3123.152
456.99	3096.529
457.20	3207.119
457.41	3211.215
457.62	3364.813
457.83	3223.503
458.04	3313.613
458.25	3373.005
458.46	3360.717
458.67	3504.075
458.88	3293.134
459.09	3379.148
459.30	3305.422
459.51	3332.045
459.73	3270.606
459.94	3497.931
460.15	3348.429
460.36	3436.492
460.57	3647.432
460.78	3633.097
460.99	3708.871
461.20	3717.063
461.41	3719.111
461.62	3606.473
461.83	3782.598
462.04	3766.215
462.25	3715.015
462.46	3583.945
462.67	3784.646
462.88	3690.440
463.09	3735.495
463.30	3815.366
463.51	3747.783
463.72	3848.133
463.93	3813.318
464.15	3792.838
464.36	4011.971
464.57	3954.628
464.78	4145.089
464.99	4274.111
465.20	4114.369
465.41	4028.355
465.62	4224.960
465.83	4198.336
466.04	3975.107
466.25	4052.930
466.46	4044.738
466.67	4124.609
466.88	4220.864
467.09	4317.118
467.30	4415.421
467.51	4419.517
467.72	4304.830
467.93	4136.897
468.14	4353.982
468.35	4456.380
468.56	4495.291
468.77	4523.963
468.98	4644.793
469.19	4655.033
469.40	4599.738
469.61	4614.074
469.82	4626.361
470.03	4761.527
470.24	4677.561
470.45	4997.044
470.66	4904.885
470.87	4978.612
471.08	4855.734
471.29	4812.727
471.50	5074.867
471.71	4960.180
471.92	5064.627
472.13	5091.250
472.34	4984.756
472.55	5232.560
472.76	5001.140
472.97	5210.032
473.18	5212.080
473.39	5398.446
473.60	5504.940
473.81	5623.722
474.01	5547.947
474.22	5574.571
474.43	5572.523
474.64	5549.995
474.85	5703.593
475.06	5767.080
475.27	5771.176
475.48	5830.567
475.69	5900.198
475.90	5805.991
476.11	5814.183
476.32	5799.848
476.53	5990.309
476.74	5928.870
476.95	5975.973
477.16	6176.674
477.37	6043.556
477.58	6250.401
477.79	6195.105
478.00	6293.408
478.21	6397.854
478.41	6401.950
478.62	6578.076
478.83	6494.109
479.04	6471.581
479.25	6506.397
479.46	6567.836
479.67	6533.020
479.88	6762.393
480.09	6752.153
480.30	6881.175
480.51	7036.821
480.72	7135.123
480.93	7358.352
481.14	7464.846
481.34	7608.204
481.55	7438.222
481.76	7610.252
481.97	7503.758
482.18	7581.580
482.39	7710.602
482.60	7634.828
482.81	7542.669
483.02	7481.230
483.23	7675.787
483.44	7698.315
483.65	7753.610
483.85	7765.898
484.06	7931.783
484.27	8040.325
484.48	7892.872
484.69	7991.174
484.90	7907.207
485.11	8005.510
485.32	8064.901
485.53	8181.635
485.73	8437.631
485.94	8411.008
486.15	8589.181
486.36	8511.358
486.57	8775.546
486.78	8816.505
486.99	9009.015
487.20	9330.546
487.41	9437.040
487.61	9344.881
487.82	9148.276
488.03	9275.250
488.24	9181.044
488.45	9109.365
488.66	9273.202
488.87	9385.841
489.08	9305.970
489.28	9324.402
489.49	9541.486
489.70	9660.269
489.91	9656.173
490.12	9770.859
490.33	9754.475
490.54	9621.357
490.74	9578.350
490.95	9512.815
491.16	9791.339
491.37	9658.221
491.58	9846.634
491.79	9793.387
492.00	9908.073
492.20	9969.512
492.41	10114.918
492.62	10270.563
492.83	10202.980
493.04	10045.287
493.25	10319.715
493.45	9983.848
493.66	10547.039
493.87	10753.884
494.08	10968.921
494.29	10805.083
494.50	10975.065
494.70	11083.607
494.91	10661.725
495.12	10467.168
495.33	10377.058
495.54	10592.094
495.75	10551.135
495.95	10461.024
496.16	10657.629
496.37	10911.578
496.58	10786.651
496.79	10940.249
496.99	10841.947
497.20	10780.508
497.41	10864.474
497.62	11022.168
497.83	11063.127
498.04	11030.360
498.24	10960.729
498.45	11026.264
498.66	11003.736
498.87	11046.743
499.08	11349.843
499.28	11358.035
499.49	11753.293
499.70	11636.558
499.91	12064.584
500.12	11956.042
500.32	11919.178
500.53	11554.640
500.74	11829.068
500.95	11513.680
501.15	11810.636
501.36	11648.846
501.57	11714.381
501.78	11654.990
501.99	11542.352
502.19	11421.522
502.40	11452.241
502.61	11757.389
502.82	11827.020
503.02	11976.521
503.23	12218.182
503.44	12519.233
503.65	13086.520
503.86	12975.930
504.06	13117.240
504.27	12932.923
504.48	12674.879
504.69	12595.008
504.89	12613.440
505.10	12298.052
505.31	12439.362
505.52	12390.211
505.72	12185.414
505.93	12201.798
506.14	12371.779
506.35	12803.901
506.55	12840.764
506.76	12762.941
506.97	12807.997
507.18	13041.465
507.38	12939.067
507.59	13088.568
507.80	13291.317
508.01	13143.863
508.21	13705.007
508.42	13582.129
508.63	13727.535
508.84	13823.789
509.04	13518.642
509.25	13424.435
509.46	13678.383
509.67	13631.280
509.87	13625.136
510.08	13664.048
510.29	13725.487
510.49	13831.981
510.70	13932.331
510.91	14522.146
511.12	14509.859
511.32	14448.420
511.53	14552.866
511.74	14681.888
511.94	14806.814
512.15	14876.445
512.36	15054.618
512.57	15482.644
512.77	14927.644
512.98	15525.651
513.19	15339.286
513.39	15421.205
513.60	15001.371
513.81	14964.508
514.01	14602.017
514.22	14718.751
514.43	14436.132
514.64	14294.822
514.84	14376.741
515.05	14831.390
515.26	14905.117
515.46	15216.408
515.67	15265.559
515.88	15425.301
516.08	15300.375
516.29	15134.489
516.50	14991.131
516.70	15001.371
516.91	15200.024
517.12	15560.467
517.32	15654.673
517.53	15580.946
517.74	15335.190
517.95	15652.625
518.15	15646.481
518.36	15550.227
518.57	16086.795
518.77	15808.271
518.98	15826.702
519.19	15734.544
519.39	15724.304
519.60	15599.378
519.80	16174.857
520.01	16101.130
520.22	16449.285
520.42	16344.839
520.63	16486.148
520.84	16457.477
521.04	16756.480
521.25	16965.373
521.46	17610.483
521.66	17370.871
521.87	17219.321
522.08	16733.953
522.28	16563.971
522.49	16969.469
522.70	17022.716
522.90	17192.698
523.11	17436.406
523.31	17073.915
523.52	17153.786
523.73	16832.255
523.93	17198.842
524.14	17032.956
524.35	17284.856
524.55	17094.395
524.76	17118.971
524.97	17118.971
525.17	16883.454
525.38	17053.436
525.58	17256.185
525.79	17516.277
526.00	17147.642
526.20	17020.668
526.41	16916.222
526.61	17293.048
526.82	17094.395
527.03	16733.953
527.23	17239.801
527.44	17291.000
527.64	17702.642
527.85	17667.826
528.06	17520.373
528.26	17411.830
528.47	17522.421
528.68	17487.605
528.88	17796.848
529.09	17932.014
529.29	18013.933
529.50	18147.051
529.70	18611.940
529.91	18923.231
530.12	19082.973
530.32	19185.371
530.53	19308.249
530.73	18898.656
530.94	18712.290
531.15	18519.781
531.35	18329.320
531.56	18951.903
531.76	19341.017
531.97	19453.655
532.17	19822.290
532.38	20209.356
532.59	19834.577
532.79	19633.876
533.00	19447.511
533.20	19625.685
533.41	19361.497
533.61	19492.567
533.82	19545.814
534.03	19334.873
534.23	19400.408
534.44	19125.980
534.64	19306.201
534.85	19584.725
535.05	19683.028
535.26	19236.570
535.46	19424.984
535.67	19494.615
535.88	19164.892
536.08	19371.736
536.29	19289.818
536.49	19343.065
536.70	19406.552
536.90	19617.493
537.11	19398.360
537.31	18804.449
537.52	18890.464
537.72	19068.637
537.93	19695.315
538.13	19719.891
538.34	19326.681
538.55	19611.349
538.75	19781.330
538.96	19967.695
539.16	20360.905
539.37	20408.009
539.57	20510.407
539.78	20362.953
539.98	20438.728
540.19	20242.123
540.39	20831.938
540.60	20539.079
540.80	20688.580
541.01	20954.816
541.21	21323.451
541.42	21438.137
541.62	21968.561
541.83	21604.022
542.03	21608.118
542.24	21544.631
542.44	22189.741
542.65	22353.579
542.85	22562.472
543.06	22965.922
543.26	22736.549
543.47	22945.442
543.67	22709.925
543.88	22709.925
544.08	22793.892
544.29	23250.589
544.49	23287.453
544.70	23369.371
544.90	22845.091
545.11	22412.970
545.31	21608.118
545.52	21769.908
545.72	22308.524
545.93	22494.889
546.13	22884.003
546.34	23377.563
546.54	23320.220
546.75	22619.815
546.95	21767.860
547.15	20899.521
547.36	21366.458
547.56	21823.155
547.77	21851.827
547.97	22017.712
548.18	21864.114
548.38	22347.435
548.59	22697.638
548.79	22673.062
549.00	22810.276
549.20	22959.778
549.41	22900.387
549.61	23406.235
549.81	23723.670
550.02	24022.673
550.22	24336.013
550.43	24264.334
550.63	23926.419
550.84	24012.434
551.04	24018.578
551.25	23955.090
551.45	23717.526
551.65	23654.039
551.86	24143.504
552.06	23801.493
552.27	23512.729
552.47	23383.707
552.68	23619.224
552.88	23234.205
553.08	23404.187
553.29	23369.371
553.49	23320.220
553.70	23537.305
553.90	23563.928
554.11	23637.655
554.31	23914.131
554.51	23692.950
554.72	24075.921
554.92	24006.290
555.13	23809.685
555.33	24215.182
555.53	24170.127
555.74	24393.356
555.94	25620.089
556.15	25615.993
556.35	26111.602
556.56	25742.967
556.76	25726.583
556.96	25185.920
557.17	24948.355
557.37	24862.341
557.58	24735.367
557.78	24428.171
557.98	24516.234
558.19	24508.042
558.39	24833.669
558.59	25777.783
558.80	26431.085
559.00	26027.635
559.21	25886.325
559.41	25728.631
559.61	25798.262
559.82	25478.779
560.02	25394.812
560.23	25415.292
560.43	25538.170
560.63	25503.355
560.84	25300.606
561.04	25296.510
561.24	25163.392
561.45	24923.780
561.65	24743.558
561.85	25065.090
562.06	25403.004
562.26	25513.595
562.47	25560.698
562.67	25581.178
562.87	25806.454
563.08	26351.214
563.28	26144.369
563.48	26449.516
563.69	26775.143
563.89	26515.051
564.09	26302.063
564.30	26381.933
564.50	26605.162
564.70	26615.402
564.91	26920.549
565.11	27332.191
565.31	27266.656
565.52	27643.482
565.72	27260.512
565.92	27164.258
566.13	27575.899
566.33	27311.711
566.53	27481.693
566.74	27098.722
566.94	26570.347
567.14	26396.269
567.35	26494.572
567.55	27008.612
567.75	27188.833
567.96	27471.453
568.16	27975.253
568.36	28421.710
568.57	28233.297
568.77	28245.585
568.97	28325.456
569.18	28190.290
569.38	27975.253
569.58	27952.725
569.79	27885.142
569.99	28221.009
570.19	28112.467
570.39	28118.611
570.60	28249.681
570.80	28755.529
571.00	28610.123
571.21	28841.544
571.41	28397.135
571.61	27962.965
571.82	28251.729
572.02	27872.855
572.22	27543.132
572.42	27895.382
572.63	28218.961
572.83	28249.681
573.03	29042.245
573.24	29376.064
573.44	29324.865
573.64	29339.200
573.84	29566.525
574.05	29564.477
574.25	29713.979
574.45	29570.621
574.66	29081.156
574.86	29115.972
575.06	28571.212
575.26	28571.212
575.47	28759.625
575.67	28997.190
575.87	28917.319
576.07	28765.769
576.28	28636.747
576.48	29138.499
576.68	28694.090
576.88	28632.651
577.09	28431.950
577.29	28296.784
577.49	28124.755
577.69	28384.847
577.90	28417.614
578.10	28618.315
578.30	29630.012
578.50	30064.181
578.71	29922.871
578.91	29193.795
579.11	28931.655
579.31	28626.507
579.52	28051.028
579.72	27946.582
579.92	29109.828
580.12	29101.636
580.33	29568.573
580.53	29744.698
580.73	29707.835
580.93	30105.141
581.13	29953.591
581.34	30021.174
581.54	29619.772
581.74	29146.691
581.94	29165.123
582.15	29656.635
582.35	30055.989
582.55	31067.686
582.75	31182.372
582.95	30531.118
583.16	30531.118
583.36	30744.107
583.56	30993.959
583.76	31311.394
583.96	31352.354
584.17	31223.332
584.37	31362.593
584.57	30953.000
584.77	31125.029
584.97	31499.807
585.18	32181.781
585.38	32407.058
585.58	32876.042
585.78	32343.570
585.98	31608.350
586.19	30791.210
586.39	30342.705
586.59	29728.314
586.79	30434.864
586.99	30703.148
587.20	30813.738
587.40	30475.823
587.60	30395.952
587.80	30211.635
588.00	30488.111
588.20	30754.347
588.41	30551.598
588.61	30367.281
588.81	30742.059
589.01	31108.645
589.21	31907.353
589.41	32321.043
589.62	32542.223
589.82	32439.825
590.02	32587.279
590.22	32415.249
590.42	32804.363
590.62	32290.323
590.83	32574.991
591.03	32398.866
591.23	31856.154
591.43	31774.235
591.63	31399.457
591.83	31895.065
592.03	32593.423
592.24	32716.301
592.44	32818.699
592.64	33312.260
592.84	33003.016
593.04	33590.783
593.24	33109.511
593.44	32546.319
593.65	32321.043
593.85	32321.043
594.05	32177.685
594.25	31983.128
594.45	32306.707
