SpectraSuite Data File
++++++++++++++++++++++++++++++++++++
Date: Tue Jan 31 19:17:03 EET 2017
User: optolab
Dark Spectrum Present: Yes
Reference Spectrum Present: Yes
Number of Sampled Component Spectra: 1
Spectrometers: USB4C02475
Integration Time (usec): 100000 (USB4C02475)
Spectra Averaged: 1 (USB4C02475)
Boxcar Smoothing: 0 (USB4C02475)
Correct for Electrical Dark: No (USB4C02475)
Strobe/Lamp Enabled: No (USB4C02475)
Correct for Detector Non-linearity: No (USB4C02475)
Correct for Stray Light: No (USB4C02475)
Number of Pixels in Processed Spectrum: 3648
>>>>>Begin Processed Spectral Data<<<<<
344,91	130,769
345,13	130,769
345,35	130,769
345,57	0,000
345,79	450,000
346,00	380,000
346,22	-194,444
346,44	538,462
346,66	450,000
346,87	116,667
347,09	30,556
347,31	-1766,667
347,53	-233,333
347,74	-392,308
347,96	328,571
348,18	1766,667
348,40	-142,857
348,61	191,429
348,83	95,122
349,05	114,286
349,27	373,684
349,48	115,385
349,70	447,059
349,92	109,756
350,14	622,222
350,35	70,732
350,57	180,000
350,79	176,471
351,01	753,846
351,22	100,000
351,44	-400,000
351,66	369,231
351,87	88,462
352,09	193,939
352,31	343,750
352,53	126,667
352,74	371,429
352,96	118,605
353,18	101,852
353,40	69,565
353,61	160,000
353,83	166,667
354,05	12,121
354,26	257,143
354,48	-575,000
354,70	63,415
354,92	169,697
355,13	120,588
355,35	0,000
355,57	33,333
355,78	117,647
356,00	114,706
356,22	311,111
356,44	-330,769
356,65	106,061
356,87	185,714
357,09	196,667
357,30	117,460
357,52	167,857
357,74	-4050,000
357,95	1720,000
358,17	116,667
358,39	111,765
358,60	620,000
358,82	476,471
359,04	-162,500
359,26	132,812
359,47	217,391
359,69	-43,243
359,91	192,308
360,12	369,231
360,34	100,000
360,56	162,069
360,77	1285,714
360,99	167,308
361,21	300,000
361,42	181,250
361,64	246,154
361,86	102,083
362,07	75,000
362,29	67,647
362,51	165,385
362,72	102,703
362,94	404,762
363,16	330,000
363,37	-48,387
363,59	237,931
363,81	-300,000
364,02	47,059
364,24	265,217
364,46	254,054
364,67	142,222
364,89	315,000
365,11	2050,000
365,32	115,663
365,54	464,286
365,76	37,931
365,97	114,286
366,19	1150,000
366,41	257,692
366,62	221,053
366,84	126,316
367,05	123,077
367,27	-200,000
367,49	219,512
367,70	787,500
367,92	154,839
368,14	3700,000
368,35	152,113
368,57	171,795
368,79	91,176
369,00	0,000
369,22	25,000
369,43	313,636
369,65	85,075
369,87	92,958
370,08	1171,429
370,30	205,882
370,51	101,852
370,73	140,385
370,95	300,000
371,16	1150,000
371,38	97,727
371,60	203,846
371,81	105,405
372,03	315,789
372,24	309,091
372,46	134,146
372,68	115,625
372,89	248,571
373,11	209,524
373,32	506,667
373,54	216,000
373,76	59,574
373,97	89,247
374,19	135,135
374,40	250,000
374,62	-266,667
374,84	176,000
375,05	175,676
375,27	122,642
375,48	165,116
375,70	70,455
375,92	166,667
376,13	44,444
376,35	1000,000
376,56	140,000
376,78	70,833
376,99	83,117
377,21	-2700,000
377,43	70,833
377,64	210,526
377,86	195,652
378,07	106,667
378,29	-106,452
378,51	161,538
378,72	88,889
378,94	82,353
379,15	200,000
379,37	212,500
379,58	155,357
379,80	115,385
380,01	475,000
380,23	263,158
380,45	57,692
380,66	400,000
380,88	-1250,000
381,09	94,286
381,31	81,159
381,52	161,111
381,74	92,537
381,95	141,463
382,17	161,667
382,39	209,091
382,60	584,615
382,82	137,143
383,03	228,846
383,25	79,487
383,46	73,171
383,68	71,429
383,89	510,000
384,11	100,000
384,32	-50,000
384,54	153,333
384,76	3900,000
384,97	50,617
385,19	102,083
385,40	129,167
385,62	272,222
385,83	197,297
386,05	104,651
386,26	59,459
386,48	184,000
386,69	105,660
386,91	185,294
387,12	370,833
387,34	178,431
387,55	100,000
387,77	238,095
387,98	-814,286
388,20	251,613
388,41	215,385
388,63	155,814
388,84	115,385
389,06	61,538
389,27	89,286
389,49	162,500
389,70	64,286
389,92	76,562
390,13	-182,609
390,35	82,000
390,56	107,576
390,78	67,742
390,99	766,667
391,21	185,714
391,42	119,672
391,64	-85,185
391,85	85,000
392,07	68,000
392,28	111,250
392,50	66,667
392,71	225,926
392,93	151,351
393,14	-184,211
393,36	259,375
393,57	168,627
393,79	18,182
394,00	116,364
394,22	63,636
394,43	205,000
394,65	1000,000
394,86	104,545
395,08	80,822
395,29	134,884
395,50	137,500
395,72	130,556
395,93	102,083
396,15	161,972
396,36	64,151
396,58	300,000
396,79	112,727
397,01	104,819
397,22	127,778
397,44	-300,000
397,65	114,474
397,87	41,026
398,08	108,000
398,29	281,250
398,51	195,833
398,72	69,000
398,94	100,000
399,15	24,490
399,37	33,333
399,58	225,806
399,80	0,000
400,01	40,580
400,22	110,204
400,44	313,333
400,65	726,667
400,87	67,213
401,08	78,947
401,30	71,000
401,51	81,818
401,72	127,907
401,94	101,613
402,15	96,610
402,37	178,788
402,58	64,444
402,80	94,643
403,01	61,702
403,22	51,667
403,44	76,250
403,65	63,636
403,87	94,872
404,08	21,538
404,30	-3,448
404,51	66,071
404,72	97,561
404,94	124,286
405,15	46,377
405,37	81,944
405,58	-45,455
405,79	51,899
406,01	79,439
406,22	34,146
406,44	57,143
406,65	75,342
406,86	36,364
407,08	233,333
407,29	35,955
407,51	50,000
407,72	90,741
407,93	59,060
408,15	37,838
408,36	86,111
408,58	82,114
408,79	69,892
409,00	46,591
409,22	69,231
409,43	92,135
409,64	-11,404
409,86	14,184
410,07	50,000
410,29	46,067
410,50	34,932
410,71	87,209
410,93	55,882
411,14	37,500
411,35	73,276
411,57	24,757
411,78	24,171
412,00	38,983
412,21	54,335
412,42	7,843
412,64	54,167
412,85	48,187
413,06	49,756
413,28	73,143
413,49	36,364
413,70	63,538
413,92	42,322
414,13	38,996
414,34	47,945
414,56	47,419
414,77	40,530
414,98	44,179
415,20	44,473
415,41	38,871
415,63	42,378
415,84	48,160
416,05	50,000
416,27	46,377
416,48	47,000
416,69	46,135
416,91	53,455
417,12	48,970
417,33	56,770
417,55	42,291
417,76	50,202
417,97	56,064
418,19	47,387
418,40	45,554
418,61	56,089
418,83	46,595
419,04	51,870
419,25	56,209
419,46	50,000
419,68	52,496
419,89	48,071
420,10	45,854
420,32	50,317
420,53	52,572
420,74	51,415
420,96	46,392
421,17	49,363
421,38	51,921
421,60	50,320
421,81	54,839
422,02	47,879
422,23	52,161
422,45	42,832
422,66	46,780
422,87	47,054
423,09	44,860
423,30	48,537
423,51	47,426
423,73	47,909
423,94	46,893
424,15	40,302
424,36	46,383
424,58	46,537
424,79	46,439
425,00	49,708
425,22	48,305
425,43	52,193
425,64	50,598
425,85	55,288
426,07	48,665
426,28	52,397
426,49	52,411
426,71	46,938
426,92	51,995
427,13	50,460
427,34	54,263
427,56	53,222
427,77	52,763
427,98	52,094
428,19	49,708
428,41	57,698
428,62	57,428
428,83	60,384
429,04	60,420
429,26	62,728
429,47	64,734
429,68	62,636
429,89	63,986
430,11	66,208
430,32	65,280
430,53	68,002
430,74	68,640
430,96	66,710
431,17	71,267
431,38	71,474
431,59	70,619
431,81	75,545
432,02	77,457
432,23	76,103
432,44	80,896
432,66	82,614
432,87	84,518
433,08	84,618
433,29	86,999
433,51	84,073
433,72	81,034
433,93	81,737
434,14	80,771
434,35	78,257
434,57	77,570
434,78	73,620
434,99	75,500
435,20	73,892
435,42	73,892
435,63	74,201
435,84	72,680
436,05	74,195
436,26	72,780
436,48	72,659
436,69	72,570
436,90	69,921
437,11	71,071
437,32	68,760
437,54	67,889
437,75	69,038
437,96	69,548
438,17	70,519
438,38	70,683
438,60	72,061
438,81	74,082
439,02	76,271
439,23	78,278
439,44	80,460
439,66	81,789
439,87	84,346
440,08	84,698
440,29	85,828
440,50	85,079
440,72	84,921
440,93	84,299
441,14	83,512
441,35	82,504
441,56	81,336
441,77	78,857
441,99	77,216
442,20	75,505
442,41	74,515
442,62	73,844
442,83	72,607
443,04	73,502
443,26	72,654
443,47	72,559
443,68	73,216
443,89	74,573
444,10	73,950
444,31	74,829
444,53	75,297
444,74	76,181
444,95	76,885
445,16	78,112
445,37	78,016
445,58	78,013
445,80	78,189
446,01	77,870
446,22	78,359
446,43	76,262
446,64	74,622
446,85	72,506
447,06	70,997
447,28	69,477
447,49	66,406
447,70	63,331
447,91	62,020
448,12	60,517
448,33	60,223
448,54	59,706
448,76	60,847
448,97	61,829
449,18	62,886
449,39	63,827
449,60	64,351
449,81	68,266
450,02	69,292
450,23	70,374
450,45	73,028
450,66	73,801
450,87	74,821
451,08	75,963
451,29	77,394
451,50	77,577
451,71	76,899
451,92	76,120
452,13	76,561
452,35	75,647
452,56	73,377
452,77	73,473
452,98	73,628
453,19	72,822
453,40	73,556
453,61	71,923
453,82	72,089
454,03	71,969
454,25	69,874
454,46	69,282
454,67	69,925
454,88	68,597
455,09	66,951
455,30	65,757
455,51	63,597
455,72	61,210
455,93	58,845
456,14	55,987
456,35	52,861
456,56	50,696
456,78	48,248
456,99	44,444
457,20	41,730
457,41	38,833
457,62	35,251
457,83	32,018
458,04	30,088
458,25	26,706
458,46	24,532
458,67	22,068
458,88	20,038
459,09	17,864
459,30	16,578
459,51	14,427
459,73	12,705
459,94	10,693
460,15	9,491
460,36	8,234
460,57	7,192
460,78	5,769
460,99	4,664
461,20	3,975
461,41	3,041
461,62	2,559
461,83	2,183
462,04	2,077
462,25	1,367
462,46	1,099
462,67	0,956
462,88	0,993
463,09	0,932
463,30	0,638
463,51	0,631
463,72	0,459
463,93	0,640
464,15	0,504
464,36	0,550
464,57	0,509
464,78	0,517
464,99	0,433
465,20	0,294
465,41	0,199
465,62	0,353
465,83	0,381
466,04	0,437
466,25	0,255
466,46	0,403
466,67	0,147
466,88	0,268
467,09	0,286
467,30	0,205
467,51	0,242
467,72	0,248
467,93	0,264
468,14	0,103
468,35	0,373
468,56	0,213
468,77	0,258
468,98	0,266
469,19	0,120
469,40	0,080
469,61	0,220
469,82	0,237
470,03	0,270
470,24	0,407
470,45	0,368
470,66	0,242
470,87	0,261
471,08	0,449
471,29	0,077
471,50	0,312
471,71	0,157
471,92	0,396
472,13	0,236
472,34	0,308
472,55	0,346
472,76	0,326
472,97	0,164
473,18	0,319
473,39	0,278
473,60	0,319
473,81	0,478
474,01	0,316
474,22	0,383
474,43	0,387
474,64	0,345
474,85	0,079
475,06	0,402
475,27	0,241
475,48	0,613
475,69	0,325
475,90	0,290
476,11	0,356
476,32	0,223
476,53	0,273
476,74	0,394
476,95	0,362
477,16	0,393
477,37	0,432
477,58	0,280
477,79	0,219
478,00	0,493
478,21	0,320
478,41	0,191
478,62	0,254
478,83	0,344
479,04	0,329
479,25	0,380
479,46	0,295
479,67	0,427
479,88	0,645
480,09	0,461
480,30	0,206
480,51	0,296
480,72	0,370
480,93	0,154
481,14	0,530
481,34	0,461
481,55	0,454
481,76	0,453
481,97	0,309
482,18	0,358
482,39	0,317
482,60	0,336
482,81	0,308
483,02	0,553
483,23	0,489
483,44	0,232
483,65	0,353
483,85	0,288
484,06	0,261
484,27	0,392
484,48	0,357
484,69	0,416
484,90	0,168
485,11	0,259
485,32	0,284
485,53	0,472
485,73	0,318
485,94	0,281
486,15	0,405
486,36	0,166
486,57	0,365
486,78	0,186
486,99	0,353
487,20	0,425
487,41	0,511
487,61	0,381
487,82	0,319
488,03	0,348
488,24	0,309
488,45	0,287
488,66	0,519
488,87	0,405
489,08	0,422
489,28	0,576
489,49	0,359
489,70	0,383
489,91	0,463
490,12	0,383
490,33	0,476
490,54	0,267
490,74	0,291
490,95	0,295
491,16	0,484
491,37	0,258
491,58	0,154
491,79	0,208
492,00	0,230
492,20	0,397
492,41	0,429
492,62	0,363
492,83	0,411
493,04	0,456
493,25	0,263
493,45	0,462
493,66	0,427
493,87	0,483
494,08	0,390
494,29	0,535
494,50	0,412
494,70	0,492
494,91	0,620
495,12	0,670
495,33	0,801
495,54	0,849
495,75	1,129
495,95	1,367
496,16	1,573
496,37	2,162
496,58	2,300
496,79	2,402
496,99	2,713
497,20	3,081
497,41	3,649
497,62	3,880
497,83	4,205
498,04	4,578
498,24	5,095
498,45	5,624
498,66	6,121
498,87	6,802
499,08	7,595
499,28	8,013
499,49	9,157
499,70	10,112
499,91	11,121
500,12	11,940
500,32	13,217
500,53	14,722
500,74	15,797
500,95	16,858
501,15	17,740
501,36	19,334
501,57	20,500
501,78	21,091
501,99	22,046
502,19	23,561
502,40	24,843
502,61	25,763
502,82	27,333
503,02	28,355
503,23	29,337
503,44	30,310
503,65	31,567
503,86	32,824
504,06	34,305
504,27	35,210
504,48	35,704
504,69	36,688
504,89	37,899
505,10	38,529
505,31	39,117
505,52	39,714
505,72	40,260
505,93	41,605
506,14	41,670
506,35	42,188
506,55	43,427
506,76	43,210
506,97	44,063
507,18	44,836
507,38	45,034
507,59	45,650
507,80	46,281
508,01	46,908
508,21	46,762
508,42	47,576
508,63	47,915
508,84	48,239
509,04	47,559
509,25	47,911
509,46	48,324
509,67	48,595
509,87	47,913
510,08	48,547
510,29	49,830
510,49	49,025
510,70	49,731
510,91	48,751
511,12	49,409
511,32	49,833
511,53	49,635
511,74	49,431
511,94	49,339
512,15	49,779
512,36	49,559
512,57	49,113
512,77	49,849
512,98	49,191
513,19	49,900
513,39	49,735
513,60	49,102
513,81	49,228
514,01	48,834
514,22	49,970
514,43	49,156
514,64	49,663
514,84	48,956
515,05	48,691
515,26	49,636
515,46	49,445
515,67	50,291
515,88	50,565
516,08	50,235
516,29	50,916
516,50	51,307
516,70	52,166
516,91	52,241
517,12	54,077
517,32	55,281
517,53	57,345
517,74	57,760
517,95	59,726
518,15	61,126
518,36	63,624
518,57	64,855
518,77	66,969
518,98	69,842
519,19	71,155
519,39	74,059
519,60	76,034
519,80	78,437
520,01	78,903
520,22	80,522
520,42	82,005
520,63	83,056
520,84	83,863
521,04	84,682
521,25	86,359
521,46	86,535
521,66	85,893
521,87	87,268
522,08	86,522
522,28	87,938
522,49	87,419
522,70	87,428
522,90	87,414
523,11	87,166
523,31	86,701
523,52	88,211
523,73	87,727
523,93	87,873
524,14	87,775
524,35	87,754
524,55	87,578
524,76	86,714
524,97	87,728
525,17	85,770
525,38	86,187
525,58	85,392
525,79	85,999
526,00	85,430
526,20	85,207
526,41	86,017
526,61	85,844
526,82	85,323
527,03	85,098
527,23	85,737
527,44	85,842
527,64	86,622
527,85	87,629
528,06	86,285
528,26	88,375
528,47	88,094
528,68	88,963
528,88	88,727
529,09	89,878
529,29	89,585
529,50	90,050
529,70	91,074
529,91	90,655
530,12	91,855
530,32	92,411
530,53	92,659
530,73	94,003
530,94	93,549
531,15	92,303
531,35	92,871
531,56	93,485
531,76	92,563
531,97	93,963
532,17	92,929
532,38	93,885
532,59	93,744
532,79	93,888
533,00	94,261
533,20	94,245
533,41	95,164
533,61	94,591
533,82	95,231
534,03	94,362
534,23	94,848
534,44	95,293
534,64	95,939
534,85	95,825
535,05	97,366
535,26	96,373
535,46	97,280
535,67	95,815
535,88	97,241
536,08	96,542
536,29	96,613
536,49	96,941
536,70	96,655
536,90	96,737
537,11	97,605
537,31	97,131
537,52	97,209
537,72	96,616
537,93	96,506
538,13	96,185
538,34	96,050
538,55	95,255
538,75	96,742
538,96	96,480
539,16	95,274
539,37	96,441
539,57	95,795
539,78	95,471
539,98	95,003
540,19	96,102
540,39	96,522
540,60	96,155
540,80	96,384
541,01	95,298
541,21	95,570
541,42	94,915
541,62	95,757
541,83	94,469
542,03	94,907
542,24	95,121
542,44	94,640
542,65	94,249
542,85	94,614
543,06	94,921
543,26	94,796
543,47	94,639
543,67	95,044
543,88	93,986
544,08	95,223
544,29	94,562
544,49	95,668
544,70	94,172
544,90	94,251
545,11	93,142
545,31	93,395
545,52	94,340
545,72	93,028
545,93	93,675
546,13	93,909
546,34	92,540
546,54	92,171
546,75	91,714
546,95	92,511
547,15	91,995
547,36	92,167
547,56	92,912
547,77	91,908
547,97	93,389
548,18	93,155
548,38	90,713
548,59	92,416
548,79	91,877
549,00	91,231
549,20	92,022
549,41	91,736
549,61	91,590
549,81	90,912
550,02	90,716
550,22	90,243
550,43	88,543
550,63	87,822
550,84	87,722
551,04	86,111
551,25	85,280
551,45	83,975
551,65	82,116
551,86	81,710
552,06	80,500
552,27	78,713
552,47	77,333
552,68	75,129
552,88	73,869
553,08	72,858
553,29	70,427
553,49	67,550
553,70	64,827
553,90	62,101
554,11	60,069
554,31	56,636
554,51	54,122
554,72	50,823
554,92	47,352
555,13	44,444
555,33	40,951
555,53	37,421
555,74	34,770
555,94	32,023
556,15	29,330
556,35	26,170
556,56	24,106
556,76	21,566
556,96	19,466
557,17	17,276
557,37	15,084
557,58	13,450
557,78	11,978
557,98	10,447
558,19	9,147
558,39	7,850
558,59	7,064
558,80	6,215
559,00	5,192
559,21	4,836
559,41	3,921
559,61	3,701
559,82	3,282
560,02	2,786
560,23	2,752
560,43	2,254
560,63	2,108
560,84	1,852
561,04	1,723
561,24	1,673
561,45	1,481
561,65	1,378
561,85	1,059
562,06	1,207
562,26	0,824
562,47	0,765
562,67	0,685
562,87	0,602
563,08	0,679
563,28	0,608
563,48	0,519
563,69	0,542
563,89	0,369
564,09	0,526
564,30	0,356
564,50	0,334
564,70	0,439
564,91	0,365
565,11	0,167
565,31	0,300
565,52	0,377
565,72	0,347
565,92	0,393
566,13	0,399
566,33	0,332
566,53	0,293
566,74	0,405
566,94	0,340
567,14	0,475
567,35	0,026
567,55	0,444
567,75	0,081
567,96	0,233
568,16	0,256
568,36	0,254
568,57	0,281
568,77	0,252
568,97	0,349
569,18	0,461
569,38	0,453
569,58	0,318
569,79	0,379
569,99	0,374
570,19	0,179
570,39	0,173
570,60	0,297
570,80	0,148
571,00	0,261
571,21	0,319
571,41	0,369
571,61	0,254
571,82	0,111
572,02	0,379
572,22	0,096
572,42	0,245
572,63	0,205
572,83	0,458
573,03	0,160
573,24	0,232
573,44	0,329
573,64	0,327
573,84	0,399
574,05	0,256
574,25	0,210
574,45	0,466
574,66	0,324
574,86	0,275
575,06	0,289
575,26	0,243
575,47	0,529
575,67	0,168
575,87	0,235
576,07	0,323
576,28	0,312
576,48	0,360
576,68	0,245
576,88	0,401
577,09	0,281
577,29	0,247
577,49	0,173
577,69	0,311
577,90	0,201
578,10	0,164
578,30	0,241
578,50	0,250
578,71	0,291
578,91	0,254
579,11	0,537
579,31	0,195
579,52	0,235
579,72	0,210
579,92	0,270
580,12	0,414
580,33	0,561
580,53	0,298
580,73	0,515
580,93	0,379
581,13	0,375
581,34	0,332
581,54	0,385
581,74	0,405
581,94	0,589
582,15	0,434
582,35	0,427
582,55	0,518
582,75	0,443
582,95	0,807
583,16	0,540
583,36	0,802
583,56	0,868
583,76	0,953
583,96	1,108
584,17	1,373
584,37	1,440
584,57	1,692
584,77	1,801
584,97	2,117
585,18	2,414
585,38	2,971
585,58	3,430
585,78	3,585
585,98	4,241
586,19	5,196
586,39	5,611
586,59	6,318
586,79	6,933
586,99	7,468
587,20	8,415
587,40	9,494
587,60	10,046
587,80	11,086
588,00	11,903
588,20	12,819
588,41	13,795
588,61	14,480
588,81	15,671
589,01	16,861
589,21	17,414
589,41	18,576
589,62	19,094
589,82	20,144
590,02	20,773
590,22	21,719
590,42	22,363
590,62	23,316
590,83	23,774
591,03	24,971
591,23	25,354
591,43	26,389
591,63	26,718
591,83	27,139
592,03	28,133
592,24	28,317
592,44	29,106
592,64	30,118
592,84	31,079
593,04	31,123
593,24	31,813
593,44	32,744
593,65	33,483
593,85	34,081
594,05	34,502
594,25	35,699
594,45	35,901
594,65	36,494
594,85	37,219
595,06	38,266
595,26	37,777
595,46	38,957
595,66	38,973
595,86	39,871
596,06	39,688
596,26	39,984
596,46	40,356
596,66	41,492
596,87	41,777
597,07	41,269
597,27	41,633
597,47	41,847
597,67	42,190
597,87	43,096
598,07	42,360
598,27	42,355
598,47	43,034
598,67	43,187
598,88	43,548
599,08	43,229
599,28	43,934
599,48	43,404
599,68	44,578
599,88	43,856
600,08	43,945
600,28	44,431
600,48	44,668
600,68	44,879
600,88	44,929
601,09	45,464
601,29	45,310
601,49	45,596
601,69	45,451
601,89	45,493
602,09	45,491
602,29	44,984
602,49	44,991
602,69	45,292
602,89	45,841
603,09	45,066
603,29	45,166
603,49	45,229
603,69	45,680
603,90	45,799
604,10	45,794
604,30	46,075
604,50	46,407
604,70	46,367
604,90	46,579
605,10	46,860
605,30	46,805
605,50	47,748
605,70	48,723
605,90	48,985
606,10	48,921
606,30	50,163
606,50	50,086
606,70	50,821
606,90	52,154
607,10	52,573
607,30	53,581
607,50	55,221
607,70	55,616
607,90	56,552
608,10	58,064
608,30	59,447
608,50	59,963
608,70	62,240
608,90	62,869
609,11	64,306
609,31	65,365
609,51	66,649
609,71	67,997
609,91	69,529
610,11	71,070
610,31	72,012
610,51	72,997
610,71	73,734
610,91	75,028
611,11	76,546
611,31	77,111
611,51	78,035
611,71	78,322
611,91	79,019
612,11	78,028
612,31	79,764
612,51	79,579
612,71	80,222
612,91	79,572
613,11	80,410
613,31	79,807
613,51	79,313
613,71	78,212
613,91	79,436
614,11	79,611
614,31	79,073
614,50	79,105
614,70	79,773
614,90	79,011
615,10	78,416
615,30	78,958
615,50	78,780
615,70	78,810
615,90	78,589
616,10	78,542
616,30	79,366
616,50	79,700
616,70	79,321
616,90	79,820
617,10	80,143
617,30	80,422
617,50	80,504
617,70	81,104
617,90	80,155
618,10	81,076
618,30	81,052
618,50	80,865
618,70	81,023
618,90	81,149
619,10	80,859
619,30	80,746
619,49	80,558
619,69	80,267
619,89	80,572
620,09	79,290
620,29	79,319
620,49	79,005
620,69	80,187
620,89	79,879
621,09	80,331
621,29	80,838
621,49	80,231
621,69	80,033
621,89	80,708
622,09	80,206
622,29	80,547
622,48	80,484
622,68	80,667
622,88	81,718
623,08	80,495
623,28	81,240
623,48	81,734
623,68	80,759
623,88	81,822
624,08	80,756
624,28	81,623
624,48	81,593
624,67	81,664
624,87	81,986
625,07	80,952
625,27	82,540
625,47	82,245
625,67	82,462
625,87	81,963
626,07	83,066
626,27	82,457
626,47	83,029
626,66	82,799
626,86	83,641
627,06	83,369
627,26	84,120
627,46	83,953
627,66	83,652
627,86	84,275
628,06	83,513
628,25	84,531
628,45	84,829
628,65	84,764
628,85	85,655
629,05	85,782
629,25	84,993
629,45	85,349
629,65	85,311
629,84	85,531
630,04	86,931
630,24	87,027
630,44	86,747
630,64	87,028
630,84	87,529
631,04	88,648
631,23	89,654
631,43	88,574
631,63	89,968
631,83	91,121
632,03	91,017
632,23	91,709
632,42	92,686
632,62	92,655
632,82	92,811
633,02	92,965
633,22	93,262
633,42	94,106
633,62	93,878
633,81	93,918
634,01	94,374
634,21	92,848
634,41	93,453
634,61	92,778
