SpectraSuite Data File
++++++++++++++++++++++++++++++++++++
Date: Tue Jan 31 19:18:13 EET 2017
User: optolab
Dark Spectrum Present: Yes
Reference Spectrum Present: Yes
Number of Sampled Component Spectra: 1
Spectrometers: USB4C02475
Integration Time (usec): 100000 (USB4C02475)
Spectra Averaged: 1 (USB4C02475)
Boxcar Smoothing: 0 (USB4C02475)
Correct for Electrical Dark: No (USB4C02475)
Strobe/Lamp Enabled: No (USB4C02475)
Correct for Detector Non-linearity: No (USB4C02475)
Correct for Stray Light: No (USB4C02475)
Number of Pixels in Processed Spectrum: 3648
>>>>>Begin Processed Spectral Data<<<<<
344,91	176,923
345,13	176,923
345,35	176,923
345,57	0,000
345,79	-66,667
346,00	180,000
346,22	-80,556
346,44	176,923
346,66	1675,000
346,87	-400,000
347,09	100,000
347,31	-1366,667
347,53	-233,333
347,74	-338,462
347,96	314,286
348,18	2366,667
348,40	-135,714
348,61	191,429
348,83	95,122
349,05	110,714
349,27	300,000
349,48	76,923
349,70	229,412
349,92	187,805
350,14	544,444
350,35	175,610
350,57	111,429
350,79	170,588
351,01	523,077
351,22	-150,000
351,44	-600,000
351,66	184,615
351,87	97,436
352,09	260,606
352,31	350,000
352,53	157,778
352,74	214,286
352,96	146,512
353,18	129,630
353,40	110,870
353,61	151,667
353,83	816,667
354,05	96,970
354,26	203,571
354,48	-875,000
354,70	209,756
354,92	57,576
355,13	105,882
355,35	0,000
355,57	2,778
355,78	223,529
356,00	108,824
356,22	355,556
356,44	-338,462
356,65	81,818
356,87	192,857
357,09	140,000
357,30	87,302
357,52	123,214
357,74	-2200,000
357,95	1040,000
358,17	616,667
358,39	211,765
358,60	550,000
358,82	358,824
359,04	-143,750
359,26	128,125
359,47	56,522
359,69	2,703
359,91	265,385
360,12	307,692
360,34	99,029
360,56	196,552
360,77	757,143
360,99	98,077
361,21	283,333
361,42	81,250
361,64	161,538
361,86	191,667
362,07	130,769
362,29	55,882
362,51	150,000
362,72	82,432
362,94	261,905
363,16	155,000
363,37	6,452
363,59	93,103
363,81	22,222
364,02	58,824
364,24	221,739
364,46	237,838
364,67	228,889
364,89	585,000
365,11	3500,000
365,32	142,169
365,54	385,714
365,76	91,379
365,97	385,714
366,19	800,000
366,41	230,769
366,62	228,947
366,84	173,684
367,05	86,154
367,27	-500,000
367,49	197,561
367,70	850,000
367,92	116,129
368,14	3250,000
368,35	116,901
368,57	105,128
368,79	29,412
369,00	0,000
369,22	291,667
369,43	268,182
369,65	126,866
369,87	88,732
370,08	1042,857
370,30	300,000
370,51	55,556
370,73	82,692
370,95	228,571
371,16	850,000
371,38	143,182
371,60	142,308
371,81	205,405
372,03	405,263
372,24	672,727
372,46	51,220
372,68	64,063
372,89	117,143
373,11	190,476
373,32	420,000
373,54	108,000
373,76	142,553
373,97	72,043
374,19	145,946
374,40	150,000
374,62	-1066,667
374,84	252,000
375,05	164,865
375,27	152,830
375,48	69,767
375,70	50,000
375,92	266,667
376,13	137,778
376,35	1733,333
376,56	64,000
376,78	39,583
376,99	105,195
377,21	-7600,000
377,43	60,417
377,64	184,211
377,86	221,739
378,07	133,333
378,29	-96,774
378,51	166,667
378,72	133,333
378,94	72,059
379,15	234,286
379,37	91,071
379,58	116,071
379,80	150,000
380,01	412,500
380,23	136,842
380,45	101,923
380,66	211,111
380,88	-350,000
381,09	117,143
381,31	110,145
381,52	152,778
381,74	100,000
381,95	214,634
382,17	83,333
382,39	200,000
382,60	446,154
382,82	171,429
383,03	117,308
383,25	100,000
383,46	7,317
383,68	98,214
383,89	580,000
384,11	77,273
384,32	-225,000
384,54	131,111
384,76	3200,000
384,97	139,506
385,19	58,333
385,40	75,000
385,62	183,333
385,83	75,676
386,05	148,837
386,26	62,162
386,48	56,000
386,69	56,604
386,91	141,176
387,12	225,000
387,34	111,765
387,55	111,364
387,77	76,190
387,98	-442,857
388,20	245,161
388,41	105,128
388,63	183,721
388,84	23,077
389,06	79,487
389,27	135,714
389,49	34,375
389,70	76,190
389,92	60,937
390,13	-95,652
390,35	56,000
390,56	157,576
390,78	164,516
390,99	2033,333
391,21	144,643
391,42	93,443
391,64	59,259
391,85	93,333
392,07	74,000
392,28	77,500
392,50	121,053
392,71	74,074
392,93	221,622
393,14	63,158
393,36	231,250
393,57	109,804
393,79	113,636
394,00	149,091
394,22	-25,000
394,43	152,500
394,65	1500,000
394,86	110,606
395,08	76,712
395,29	204,651
395,50	93,750
395,72	72,222
395,93	152,083
396,15	94,366
396,36	24,528
396,58	114,815
396,79	110,909
397,01	120,482
397,22	294,444
397,44	-440,000
397,65	67,105
397,87	41,026
398,08	80,000
398,29	181,250
398,51	191,667
398,72	62,000
398,94	81,081
399,15	6,122
399,37	94,872
399,58	229,032
399,80	25,000
400,01	1,449
400,22	97,959
400,44	526,667
400,65	246,667
400,87	109,836
401,08	67,105
401,30	92,000
401,51	57,576
401,72	39,535
401,94	140,323
402,15	94,915
402,37	245,455
402,58	22,222
402,80	78,571
403,01	79,787
403,22	73,333
403,44	113,750
403,65	-245,455
403,87	82,051
404,08	63,077
404,30	-58,621
404,51	51,786
404,72	85,366
404,94	202,857
405,15	43,478
405,37	105,556
405,58	104,545
405,79	69,620
406,01	82,243
406,22	34,146
406,44	60,204
406,65	31,507
406,86	18,182
407,08	155,556
407,29	40,449
407,51	85,714
407,72	81,481
407,93	67,785
408,15	97,297
408,36	55,556
408,58	65,854
408,79	88,172
409,00	68,182
409,22	86,813
409,43	60,674
409,64	26,316
409,86	65,248
410,07	76,852
410,29	103,371
410,50	76,712
410,71	51,163
410,93	62,353
411,14	79,687
411,35	118,103
411,57	48,544
411,78	60,664
412,00	69,492
412,21	60,694
412,42	56,863
412,64	52,778
412,85	64,249
413,06	58,049
413,28	72,571
413,49	52,273
413,70	63,177
413,92	50,936
414,13	54,440
414,34	48,402
414,56	55,806
414,77	56,439
414,98	42,687
415,20	54,242
415,41	49,216
415,63	32,012
415,84	45,092
416,05	48,544
416,27	50,725
416,48	42,000
416,69	46,377
416,91	52,846
417,12	46,224
417,33	46,081
417,55	34,581
417,76	47,773
417,97	60,239
418,19	46,864
418,40	60,254
418,61	45,626
418,83	47,312
419,04	46,341
419,25	50,490
419,46	52,830
419,68	60,200
419,89	54,451
420,10	45,854
420,32	54,246
420,53	58,720
420,74	50,590
420,96	49,141
421,17	54,345
421,38	54,995
421,60	47,548
421,81	48,387
422,02	50,404
422,23	55,812
422,45	50,259
422,66	49,746
422,87	48,184
423,09	49,688
423,30	47,398
423,51	43,437
423,73	49,125
423,94	46,893
424,15	43,393
424,36	46,721
424,58	47,508
424,79	46,744
425,00	48,483
425,22	51,808
425,43	55,081
425,64	56,304
425,85	59,014
426,07	54,500
426,28	61,399
426,49	61,861
426,71	61,335
426,92	64,687
427,13	61,629
427,34	63,960
427,56	65,946
427,77	66,187
427,98	68,415
428,19	66,362
428,41	71,314
428,62	72,285
428,83	74,528
429,04	74,058
429,26	74,928
429,47	74,062
429,68	72,128
429,89	73,529
430,11	73,376
430,32	70,649
430,53	73,059
430,74	70,450
430,96	69,654
431,17	71,241
431,38	66,519
431,59	66,399
431,81	65,345
432,02	65,086
432,23	62,519
432,44	63,133
432,66	61,776
432,87	61,968
433,08	61,726
433,29	63,999
433,51	63,189
433,72	62,893
433,93	63,330
434,14	63,321
434,35	63,101
434,57	63,834
434,78	62,940
434,99	64,725
435,20	65,752
435,42	65,631
435,63	64,699
435,84	64,557
436,05	65,102
436,26	65,690
436,48	65,431
436,69	63,702
436,90	63,021
437,11	63,045
437,32	62,921
437,54	61,711
437,75	61,701
437,96	62,345
438,17	62,164
438,38	62,945
438,60	63,835
438,81	64,672
439,02	64,865
439,23	65,597
439,44	68,446
439,66	69,160
439,87	70,357
440,08	68,926
440,29	68,645
440,50	65,341
440,72	65,485
440,93	63,081
441,14	60,880
441,35	58,961
441,56	55,751
441,77	52,720
441,99	50,796
442,20	49,314
442,41	48,114
442,62	46,781
442,83	46,141
443,04	47,766
443,26	48,344
443,47	49,954
443,68	51,181
443,89	52,802
444,10	54,810
444,31	58,361
444,53	60,032
444,74	62,588
444,95	63,349
445,16	64,930
445,37	64,563
445,58	65,395
445,80	64,979
446,01	63,913
446,22	63,850
446,43	62,545
446,64	60,461
446,85	58,638
447,06	59,087
447,28	58,897
447,49	57,076
447,70	56,498
447,91	55,557
448,12	54,976
448,33	54,221
448,54	52,634
448,76	51,816
448,97	50,500
449,18	48,735
449,39	46,225
449,60	43,280
449,81	40,910
450,02	38,035
450,23	34,828
450,45	31,838
450,66	29,145
450,87	25,987
451,08	22,704
451,29	20,558
451,50	18,443
451,71	16,397
451,92	14,226
452,13	12,474
452,35	11,322
452,56	9,412
452,77	7,769
452,98	6,817
453,19	6,182
453,40	5,216
453,61	4,712
453,82	4,227
454,03	3,406
454,25	3,094
454,46	2,549
454,67	2,562
454,88	2,323
455,09	1,310
455,30	1,583
455,51	1,637
455,72	1,381
455,93	1,309
456,14	1,099
456,35	0,650
456,56	1,015
456,78	0,781
456,99	0,557
457,20	0,455
457,41	0,809
457,62	0,265
457,83	0,529
458,04	0,376
458,25	0,439
458,46	0,289
458,67	0,734
458,88	0,289
459,09	0,070
459,30	0,528
459,51	0,207
459,73	0,442
459,94	0,328
460,15	0,115
460,36	0,399
460,57	0,260
460,78	0,345
460,99	0,369
461,20	0,342
461,41	0,213
461,62	0,253
461,83	0,338
462,04	0,499
462,25	0,026
462,46	0,165
462,67	0,247
462,88	0,513
463,09	0,297
463,30	0,233
463,51	0,109
463,72	0,073
463,93	0,399
464,15	0,254
464,36	0,252
464,57	0,311
464,78	0,362
464,99	0,355
465,20	0,103
465,41	0,260
465,62	0,287
465,83	0,138
466,04	0,293
466,25	0,274
466,46	0,493
466,67	0,207
466,88	0,204
467,09	0,305
467,30	0,224
467,51	0,291
467,72	0,270
467,93	0,256
468,14	0,076
468,35	0,244
468,56	0,067
468,77	0,239
468,98	0,341
469,19	0,233
469,40	0,381
469,61	0,224
469,82	0,090
470,03	0,179
470,24	0,291
470,45	0,314
470,66	0,414
470,87	0,253
471,08	0,382
471,29	0,316
471,50	0,399
471,71	0,079
471,92	0,380
472,13	0,336
472,34	0,532
472,55	0,430
472,76	0,151
472,97	0,078
473,18	0,352
473,39	0,400
473,60	0,466
473,81	0,338
474,01	0,185
474,22	0,557
474,43	0,341
474,64	0,298
474,85	0,284
475,06	0,214
475,27	0,181
475,48	0,447
475,69	0,260
475,90	0,325
476,11	0,419
476,32	0,294
476,53	0,471
476,74	0,179
476,95	0,331
477,16	0,281
477,37	0,356
477,58	0,444
477,79	0,210
478,00	0,354
478,21	0,433
478,41	0,337
478,62	0,408
478,83	0,344
479,04	0,185
479,25	0,210
479,46	0,522
479,67	0,323
479,88	0,495
480,09	0,398
480,30	0,219
480,51	0,524
480,72	0,402
480,93	0,366
481,14	0,512
481,34	0,595
481,55	0,395
481,76	0,439
481,97	0,504
482,18	0,416
482,39	0,347
482,60	0,539
482,81	0,383
483,02	0,666
483,23	0,384
483,44	0,284
483,65	0,441
483,85	0,315
484,06	0,339
484,27	0,243
484,48	0,513
484,69	0,515
484,90	0,400
485,11	0,358
485,32	0,301
485,53	0,691
485,73	0,492
485,94	0,438
486,15	0,705
486,36	0,610
486,57	1,062
486,78	1,090
486,99	1,259
487,20	1,762
487,41	1,800
487,61	1,885
487,82	2,383
488,03	2,611
488,24	2,744
488,45	2,935
488,66	3,534
488,87	3,794
489,08	4,018
489,28	4,673
489,49	5,007
489,70	5,398
489,91	5,502
490,12	6,619
490,33	7,138
490,54	7,799
490,74	8,536
490,95	9,186
491,16	10,793
491,37	11,174
491,58	12,213
491,79	13,385
492,00	14,247
492,20	15,514
492,41	16,379
492,62	17,336
492,83	18,011
493,04	19,315
493,25	20,376
493,45	21,301
493,66	22,638
493,87	23,907
494,08	24,595
494,29	25,767
494,50	26,940
494,70	28,233
494,91	29,452
495,12	29,930
495,33	31,452
495,54	32,144
495,75	33,069
495,95	34,216
496,16	35,141
496,37	36,029
496,58	37,149
496,79	37,837
496,99	38,607
497,20	38,929
497,41	39,756
497,62	40,930
497,83	41,507
498,04	42,219
498,24	42,187
498,45	43,003
498,66	43,762
498,87	43,710
499,08	43,736
499,28	44,480
499,49	45,054
499,70	45,582
499,91	45,648
500,12	45,664
500,32	46,027
500,53	46,435
500,74	46,623
500,95	46,754
501,15	47,109
501,36	47,084
501,57	46,892
501,78	46,880
501,99	47,075
502,19	47,482
502,40	46,964
502,61	47,646
502,82	47,476
503,02	47,787
503,23	48,088
503,44	47,659
503,65	47,474
503,86	48,333
504,06	48,003
504,27	47,945
504,48	47,874
504,69	47,315
504,89	48,303
505,10	47,788
505,31	48,156
505,52	47,827
505,72	48,400
505,93	48,332
506,14	47,670
506,35	48,365
506,55	47,352
506,76	47,279
506,97	47,928
507,18	47,844
507,38	48,105
507,59	47,911
507,80	47,804
508,01	47,811
508,21	48,087
508,42	47,557
508,63	47,685
508,84	47,835
509,04	47,751
509,25	48,138
509,46	48,504
509,67	47,941
509,87	47,567
510,08	47,945
510,29	48,172
510,49	48,982
510,70	49,564
510,91	49,559
511,12	50,678
511,32	51,645
511,53	53,134
511,74	54,543
511,94	55,631
512,15	57,472
512,36	59,407
512,57	61,741
512,77	63,995
512,98	66,459
513,19	68,068
513,39	69,936
513,60	72,642
513,81	73,207
514,01	75,021
514,22	77,498
514,43	77,111
514,64	78,189
514,84	78,213
515,05	78,565
515,26	78,840
515,46	79,484
515,67	79,454
515,88	79,561
516,08	79,292
516,29	79,952
516,50	80,565
516,70	81,061
516,91	80,847
517,12	80,056
517,32	80,658
517,53	81,856
517,74	81,630
517,95	80,845
518,15	81,516
518,36	81,392
518,57	79,635
518,77	79,926
518,98	78,877
519,19	79,663
519,39	78,953
519,60	78,926
519,80	79,603
520,01	78,316
520,22	79,102
520,42	79,671
520,63	80,083
520,84	80,923
521,04	80,461
521,25	82,279
521,46	81,766
521,66	83,523
521,87	84,147
522,08	84,100
522,28	85,899
522,49	86,773
522,70	86,656
522,90	86,511
523,11	88,783
523,31	87,976
523,52	89,458
523,73	88,873
523,93	89,777
524,14	90,480
524,35	89,775
524,55	90,533
524,76	90,534
524,97	91,499
525,17	91,356
525,38	91,345
525,58	92,038
525,79	92,238
526,00	93,194
526,20	92,943
526,41	94,131
526,61	93,963
526,82	94,275
527,03	94,401
527,23	95,367
527,44	95,744
527,64	95,911
527,85	94,836
528,06	94,417
528,26	95,462
528,47	96,376
528,68	95,960
528,88	94,528
529,09	95,347
529,29	94,480
529,50	93,743
529,70	93,966
529,91	92,561
530,12	92,725
530,32	93,275
530,53	92,286
530,73	93,293
530,94	92,721
531,15	91,107
531,35	90,731
531,56	91,790
531,76	90,834
531,97	91,924
532,17	91,553
532,38	91,715
532,59	91,263
532,79	91,577
533,00	92,820
533,20	92,940
533,41	93,109
533,61	92,869
533,82	91,873
534,03	91,257
534,23	92,143
534,44	91,460
534,64	91,505
534,85	90,984
535,05	92,269
535,26	90,530
535,46	90,061
535,67	90,455
535,88	91,112
536,08	90,039
536,29	89,564
536,49	89,858
536,70	89,628
536,90	89,688
537,11	90,610
537,31	88,816
537,52	88,653
537,72	88,521
537,93	88,901
538,13	88,166
538,34	87,861
538,55	87,575
538,75	87,882
538,96	87,756
539,16	86,221
539,37	86,993
539,57	85,959
539,78	86,432
539,98	86,231
540,19	87,067
540,39	86,150
540,60	85,988
540,80	86,041
541,01	84,213
541,21	83,971
541,42	82,455
541,62	82,153
541,83	81,463
542,03	79,702
542,24	78,942
542,44	75,536
542,65	75,146
542,85	73,533
543,06	71,640
543,26	70,433
543,47	68,172
543,67	66,101
543,88	64,235
544,08	63,101
544,29	59,763
544,49	58,313
544,70	54,448
544,90	51,192
545,11	48,326
545,31	45,125
545,52	42,135
545,72	39,055
545,93	35,844
546,13	33,083
546,34	30,174
546,54	27,185
546,75	24,444
546,95	22,337
547,15	19,501
547,36	17,821
547,56	15,977
547,77	14,316
547,97	12,643
548,18	11,704
548,38	10,036
548,59	9,004
548,79	8,162
549,00	6,988
549,20	6,198
549,41	5,569
549,61	4,860
549,81	4,392
550,02	3,723
550,22	3,521
550,43	3,031
550,63	2,697
550,84	2,173
551,04	2,093
551,25	1,661
551,45	1,726
551,65	1,479
551,86	1,297
552,06	1,393
552,27	1,160
552,47	1,137
552,68	1,093
552,88	0,925
553,08	1,079
553,29	0,683
553,49	0,750
553,70	0,625
553,90	0,621
554,11	0,669
554,31	0,505
554,51	0,515
554,72	0,385
554,92	0,339
555,13	0,492
555,33	0,223
555,53	0,388
555,74	0,450
555,94	0,204
556,15	0,468
556,35	0,131
556,56	0,244
556,76	0,208
556,96	0,254
557,17	0,436
557,37	0,423
557,58	0,410
557,78	0,444
557,98	0,251
558,19	0,227
558,39	0,360
558,59	0,330
558,80	0,460
559,00	0,478
559,21	0,368
559,41	0,282
559,61	0,316
559,82	0,443
560,02	0,401
560,23	0,181
560,43	0,422
560,63	0,170
560,84	0,189
561,04	0,266
561,24	0,459
561,45	0,435
561,65	0,432
561,85	0,285
562,06	0,483
562,26	0,303
562,47	0,303
562,67	0,363
562,87	0,263
563,08	0,326
563,28	0,132
563,48	0,321
563,69	0,333
563,89	0,257
564,09	0,357
564,30	0,409
564,50	0,251
564,70	0,364
564,91	0,250
565,11	0,182
565,31	0,049
565,52	0,362
565,72	0,232
565,92	0,284
566,13	0,359
566,33	0,366
566,53	0,234
566,74	0,290
566,94	0,415
567,14	0,275
567,35	0,133
567,55	0,329
567,75	0,155
567,96	0,274
568,16	0,315
568,36	0,376
568,57	0,292
568,77	0,219
568,97	0,493
569,18	0,212
569,38	0,356
569,58	0,270
569,79	0,446
569,99	0,567
570,19	0,253
570,39	0,284
570,60	0,483
570,80	0,325
571,00	0,578
571,21	0,356
571,41	0,704
571,61	0,669
571,82	0,655
572,02	0,904
572,22	0,910
572,42	0,801
572,63	1,050
572,83	1,485
573,03	1,517
573,24	1,851
573,44	2,238
573,64	2,447
573,84	2,797
574,05	3,158
574,25	3,549
574,45	4,268
574,66	4,413
574,86	5,004
575,06	5,954
575,26	6,328
575,47	7,665
575,67	8,002
575,87	8,664
576,07	9,479
576,28	10,677
576,48	11,213
576,68	12,027
576,88	13,070
577,09	13,589
577,29	14,418
577,49	15,432
577,69	16,518
577,90	17,364
578,10	17,753
578,30	19,086
578,50	19,429
578,71	20,416
578,91	20,835
579,11	21,832
579,31	22,434
579,52	22,883
579,72	23,624
579,92	24,012
580,12	24,963
580,33	25,512
580,53	25,449
580,73	25,791
580,93	26,693
581,13	27,524
581,34	28,090
581,54	28,363
581,74	29,152
581,94	29,679
582,15	30,598
582,35	30,800
582,55	31,631
582,75	32,861
582,95	33,697
583,16	33,676
583,36	34,975
583,56	35,454
583,76	35,653
583,96	36,708
584,17	36,952
584,37	37,860
584,57	38,305
584,77	38,144
584,97	38,433
585,18	39,133
585,38	39,025
585,58	39,357
585,78	39,908
585,98	39,830
586,19	39,673
586,39	39,830
586,59	40,606
586,79	40,067
586,99	40,848
587,20	40,845
587,40	40,949
587,60	41,151
587,80	41,311
588,00	41,585
588,20	41,867
588,41	41,476
588,61	42,314
588,81	41,547
589,01	42,698
589,21	42,330
589,41	41,967
589,62	42,373
589,82	42,585
590,02	42,684
590,22	43,273
590,42	43,219
590,62	42,607
590,83	43,303
591,03	43,005
591,23	43,673
591,43	43,173
591,63	43,415
591,83	42,653
592,03	43,889
592,24	43,260
592,44	44,057
592,64	43,638
592,84	44,311
593,04	44,804
593,24	44,185
593,44	44,657
593,65	45,559
593,85	46,116
594,05	45,431
594,25	46,038
594,45	45,936
594,65	46,176
594,85	45,727
595,06	46,337
595,26	46,578
595,46	45,924
595,66	46,066
595,86	47,112
596,06	47,186
596,26	46,401
596,46	46,566
596,66	47,128
596,87	47,201
597,07	46,941
597,27	47,201
597,47	47,460
597,67	47,567
597,87	47,314
598,07	47,684
598,27	47,788
598,47	48,115
598,67	48,695
598,88	49,388
599,08	49,129
599,28	49,888
599,48	50,057
599,68	50,793
599,88	51,266
600,08	52,676
600,28	53,634
600,48	55,435
600,68	56,473
600,88	57,784
601,09	58,979
601,29	60,235
601,49	61,633
601,69	63,633
601,89	64,509
602,09	65,305
602,29	66,535
602,49	67,854
602,69	69,252
602,89	70,800
603,09	70,510
603,29	70,501
603,49	71,118
603,69	72,015
603,90	72,397
604,10	72,854
604,30	71,820
604,50	71,758
604,70	72,135
604,90	72,065
605,10	71,601
605,30	71,607
605,50	72,901
605,70	73,221
605,90	72,452
606,10	72,671
606,30	72,814
606,50	72,391
606,70	72,387
606,90	73,463
607,10	73,630
607,30	74,100
607,50	73,580
607,70	74,750
607,90	74,659
608,10	74,428
608,30	75,479
608,50	74,267
608,70	76,279
608,90	74,672
609,11	76,436
609,31	76,324
609,51	75,227
609,71	75,040
609,91	75,172
610,11	75,168
610,31	74,573
610,51	75,062
610,71	73,914
610,91	75,236
611,11	74,047
611,31	74,320
611,51	74,519
611,71	75,381
611,91	75,456
612,11	74,154
612,31	74,930
612,51	75,911
612,71	75,498
612,91	75,308
613,11	77,332
613,31	75,987
613,51	76,699
613,71	76,571
613,91	77,134
614,11	78,029
614,31	77,473
614,50	77,649
614,70	77,915
614,90	78,155
615,10	77,863
615,30	78,371
615,50	78,181
615,70	79,341
615,90	77,969
616,10	78,081
616,30	79,248
616,50	79,775
616,70	80,486
616,90	80,207
617,10	79,887
617,30	81,287
617,50	81,760
617,70	81,977
617,90	82,320
618,10	83,048
618,30	82,403
618,50	83,368
618,70	83,958
618,90	83,980
619,10	84,463
619,30	84,406
619,49	84,796
619,69	85,466
619,89	85,280
620,09	85,923
620,29	84,712
620,49	84,978
620,69	85,946
620,89	85,459
621,09	87,098
621,29	86,843
621,49	87,035
621,69	87,412
621,89	87,327
622,09	85,306
622,29	86,286
622,48	85,511
622,68	85,678
622,88	85,450
623,08	83,383
623,28	83,087
623,48	82,679
623,68	80,998
623,88	80,418
624,08	78,261
624,28	77,482
624,48	75,794
624,67	74,802
624,87	73,708
625,07	71,001
625,27	70,937
625,47	68,886
625,67	67,498
625,87	66,033
626,07	64,243
626,27	62,859
626,47	61,556
626,66	60,274
626,86	58,903
627,06	57,164
627,26	55,675
627,46	53,921
627,66	53,968
627,86	52,511
628,06	50,936
628,25	50,867
628,45	49,582
628,65	48,339
628,85	47,801
629,05	46,087
629,25	45,537
629,45	44,318
629,65	43,157
629,84	42,669
630,04	41,095
630,24	39,450
630,44	38,378
630,64	37,805
630,84	35,423
631,04	34,169
631,23	33,008
631,43	30,925
631,63	29,496
631,83	27,576
632,03	25,160
632,23	23,603
632,42	21,918
632,62	20,061
632,82	18,582
633,02	16,839
633,22	14,726
633,42	13,246
633,62	11,874
633,81	10,958
634,01	9,352
634,21	8,013
634,41	7,431
634,61	6,188
634,80	5,425
