SpectraSuite Data File
++++++++++++++++++++++++++++++++++++
Date: Mon Mar 27 19:47:40 EEST 2017
User: TheoProf
Spectrometer Serial Number: USB4C02475
Spectrometer Channel: 0
Integration Time (usec): 426341
Spectra Averaged: 1
Boxcar Smoothing: 0
Correct for Electrical Dark: No
Strobe/Lamp Enabled: No
Correct for Detector Non-linearity: No
Correct for Stray Light: No
Number of Pixels in Spectrum: 3648
>>>>>Begin Spectral Data<<<<<
344.91	1173.486
345.13	1173.486
345.35	1173.486
345.57	1167.342
345.79	1261.549
346.00	3278.798
346.22	2623.448
346.44	2379.740
346.66	2779.094
346.87	2138.079
347.09	2306.013
347.31	2369.500
347.53	2633.688
347.74	2664.407
347.96	2650.072
348.18	2453.467
348.40	2119.648
348.61	2701.271
348.83	2793.429
349.05	2682.839
349.27	2291.677
349.48	2502.618
349.70	2527.193
349.92	2443.227
350.14	2445.275
350.35	2682.839
350.57	2668.503
350.79	2629.592
351.01	3082.193
351.22	2336.732
351.44	2527.193
351.66	2088.928
351.87	2953.171
352.09	2691.031
352.31	2762.710
352.53	2707.415
352.74	2774.998
352.96	2680.791
353.18	2410.459
353.40	2432.987
353.61	2449.371
353.83	2541.529
354.05	2609.112
354.26	2471.898
354.48	2564.057
354.70	2293.725
354.92	2568.153
355.13	2648.024
355.35	2787.285
355.57	2705.367
355.78	2414.555
356.00	2840.533
356.22	2250.718
356.44	2807.765
356.65	2701.271
356.87	2605.016
357.09	2779.094
357.30	2234.334
357.52	2764.758
357.74	2754.518
357.95	2265.053
358.17	2502.618
358.39	2541.529
358.60	2426.843
358.82	2318.301
359.04	2543.577
359.26	2273.245
359.47	2299.869
359.69	2795.477
359.91	2480.090
360.12	2564.057
360.34	2678.743
360.56	2260.958
360.77	2461.658
360.99	2736.086
361.21	2306.013
361.42	2441.179
361.64	2750.422
361.86	2723.798
362.07	3047.378
362.29	2402.267
362.51	2424.795
362.72	2410.459
362.94	2529.241
363.16	2469.850
363.37	2686.935
363.59	2355.164
363.81	2377.692
364.02	3004.370
364.24	2342.876
364.46	2512.858
364.67	2426.843
364.89	2672.599
365.11	2338.780
365.32	2734.038
365.54	2650.072
365.76	2658.263
365.97	2605.016
366.19	2535.385
366.41	2463.706
366.62	2725.846
366.84	2133.983
367.05	2459.610
367.27	2377.692
367.49	2222.046
367.70	2426.843
367.92	2410.459
368.14	2553.817
368.35	2572.249
368.57	2111.456
368.79	2336.732
369.00	2473.946
369.22	2482.138
369.43	2586.585
369.65	2615.256
369.87	2545.625
370.08	2602.968
370.30	2385.884
370.51	2140.127
370.73	2146.271
370.95	2584.537
371.16	2150.367
371.38	2600.920
371.60	2418.651
371.81	2600.920
372.03	2781.142
372.24	2545.625
372.46	2580.441
372.68	2072.544
372.89	2207.710
373.11	2344.924
373.32	2793.429
373.54	2729.942
373.76	2404.315
373.97	2242.526
374.19	2719.702
374.40	2734.038
374.62	2410.459
374.84	2752.470
375.05	2142.175
375.27	2889.684
375.48	2189.279
375.70	2099.168
375.92	2297.821
376.13	2527.193
376.35	2287.581
376.56	2389.980
376.78	2541.529
376.99	2162.655
377.21	2385.884
377.43	2267.101
377.64	2492.378
377.86	2609.112
378.07	2222.046
378.29	2486.234
378.51	2475.994
378.72	2449.371
378.94	2156.511
379.15	2111.456
379.37	2314.205
379.58	2631.640
379.80	2213.854
380.01	2445.275
380.23	2369.500
380.45	2394.075
380.66	2699.223
380.88	2318.301
381.09	2666.455
381.31	2613.208
381.52	2312.157
381.74	2437.083
381.95	2654.168
382.17	2523.098
382.39	2432.987
382.60	2416.603
382.82	2256.862
383.03	2338.780
383.25	2064.352
383.46	2508.762
383.68	2269.149
383.89	2740.182
384.11	2285.533
384.32	2125.792
384.54	2463.706
384.76	2398.171
384.97	2166.751
385.19	1955.810
385.40	2478.042
385.62	2406.363
385.83	2519.002
386.05	2078.688
386.26	2359.260
386.48	2322.397
386.69	2244.574
386.91	2312.157
387.12	2349.020
387.34	2201.566
387.55	1908.707
387.77	2086.880
387.98	2181.087
388.20	2457.562
388.41	2340.828
388.63	2471.898
388.84	2408.411
389.06	2508.762
389.27	2428.891
389.49	2289.629
389.70	2519.002
389.92	2179.039
390.13	2265.053
390.35	2041.825
390.56	2572.249
390.78	2222.046
390.99	2193.375
391.21	2469.850
391.42	2430.939
391.64	2136.031
391.85	2113.504
392.07	2027.489
392.28	2027.489
392.50	2342.876
392.71	1929.187
392.93	1970.146
393.14	2514.906
393.36	2527.193
393.57	2328.540
393.79	2217.950
394.00	2279.389
394.22	1890.275
394.43	2076.640
394.65	2263.005
394.86	2285.533
395.08	2187.231
395.29	1888.227
395.50	2279.389
395.72	2183.135
395.93	2672.599
396.15	2480.090
396.36	2076.640
396.58	2574.297
396.79	2281.437
397.01	2240.478
397.22	2086.880
397.44	2248.670
397.65	2047.969
397.87	1781.733
398.08	2217.950
398.29	2201.566
398.51	2740.182
398.72	1976.290
398.94	2201.566
399.15	2179.039
399.37	2320.349
399.58	1945.570
399.80	2039.777
400.01	2066.400
400.22	2236.382
400.44	2387.932
400.65	2400.219
400.87	2185.183
401.08	2330.588
401.30	1927.139
401.51	2310.109
401.72	2312.157
401.94	1871.843
402.15	2031.585
402.37	2045.921
402.58	2074.592
402.80	2148.319
403.01	2045.921
403.22	2275.293
403.44	2252.766
403.65	2056.161
403.87	1947.618
404.08	2275.293
404.30	2043.873
404.51	2054.113
404.72	2203.614
404.94	2129.888
405.15	2340.828
405.37	2144.223
405.58	1974.242
405.79	2050.017
406.01	2365.404
406.22	1964.002
406.44	1955.810
406.65	2166.751
406.86	2164.703
407.08	1908.707
407.29	2009.057
407.51	2002.913
407.72	2543.577
407.93	2236.382
408.15	2054.113
408.36	2187.231
408.58	2133.983
408.79	2127.840
409.00	2230.238
409.22	2064.352
409.43	2082.784
409.64	2320.349
409.86	2076.640
410.07	1949.666
410.29	1843.172
410.50	2152.415
410.71	2215.902
410.93	2041.825
411.14	2158.559
411.35	2385.884
411.57	1978.338
411.78	2047.969
412.00	2052.065
412.21	2527.193
412.42	2076.640
412.64	2215.902
412.85	1865.700
413.06	2197.470
413.28	2121.696
413.49	2035.681
413.70	2375.644
413.92	2258.910
414.13	1767.397
414.34	1880.035
414.56	2308.061
414.77	2363.356
414.98	2002.913
415.20	2138.079
415.41	2117.600
415.63	2004.961
415.84	2111.456
416.05	2209.758
416.27	2031.585
416.48	2140.127
416.69	1980.386
416.91	2054.113
417.12	1906.659
417.33	2125.792
417.55	2097.120
417.76	2355.164
417.97	2066.400
418.19	2219.998
418.40	2133.983
418.61	2031.585
418.83	2082.784
419.04	2047.969
419.25	2219.998
419.46	1990.626
419.68	1968.098
419.89	2230.238
420.10	2021.345
420.32	2129.888
420.53	1908.707
420.74	2238.430
420.96	1945.570
421.17	1826.788
421.38	2195.422
421.60	2162.655
421.81	2000.865
422.02	2060.257
422.23	2269.149
422.45	1855.460
422.66	1818.596
422.87	2004.961
423.09	2244.574
423.30	2166.751
423.51	2156.511
423.73	2054.113
423.94	2254.814
424.15	1798.117
424.36	2201.566
424.58	2113.504
424.79	2176.991
425.00	1984.482
425.22	2093.024
425.43	1994.722
425.64	1837.028
425.85	2009.057
426.07	2107.360
426.28	2105.312
426.49	2015.201
426.71	2125.792
426.92	2082.784
427.13	1929.187
427.34	2199.518
427.56	2480.090
427.77	2025.441
427.98	1929.187
428.19	2025.441
428.41	1918.947
428.62	1910.755
428.83	2236.382
429.04	2009.057
429.26	2152.415
429.47	2166.751
429.68	1908.707
429.89	1976.290
430.11	2058.209
430.32	1765.349
430.53	1914.851
430.74	1972.194
430.96	2060.257
431.17	1875.939
431.38	2191.327
431.59	1972.194
431.81	2029.537
432.02	2021.345
432.23	2043.873
432.44	1994.722
432.66	2346.972
432.87	1984.482
433.08	2093.024
433.29	2136.031
433.51	2068.448
433.72	2037.729
433.93	1873.891
434.14	2093.024
434.35	2211.806
434.57	1978.338
434.78	2013.153
434.99	2121.696
435.20	2179.039
435.42	1996.770
435.63	1980.386
435.84	2168.799
436.05	2023.393
436.26	2050.017
436.48	2015.201
436.69	1892.323
436.90	1990.626
437.11	1994.722
437.32	2027.489
437.54	2068.448
437.75	2365.404
437.96	2260.958
438.17	2097.120
438.38	2095.072
438.60	2174.943
438.81	1949.666
439.02	2035.681
439.23	1918.947
439.44	1845.220
439.66	1947.618
439.87	1937.378
440.08	2093.024
440.29	2142.175
440.50	1964.002
440.72	1927.139
440.93	1865.700
441.14	2019.297
441.35	1970.146
441.56	1890.275
441.77	2078.688
441.99	2056.161
442.20	1992.674
442.41	1966.050
442.62	2047.969
442.83	2185.183
443.04	2058.209
443.26	2000.865
443.47	2478.042
443.68	1945.570
443.89	2084.832
444.10	2039.777
444.31	2199.518
444.53	2332.636
444.74	1937.378
444.95	1871.843
445.16	2015.201
445.37	1964.002
445.58	2121.696
445.80	2140.127
446.01	2248.670
446.22	2252.766
446.43	1730.534
446.64	1941.474
446.85	2047.969
447.06	1970.146
447.28	2050.017
447.49	1920.995
447.70	1988.578
447.91	2068.448
448.12	1785.829
448.33	1996.770
448.54	1961.954
448.76	2095.072
448.97	2205.662
449.18	2088.928
449.39	2150.367
449.60	1992.674
449.81	2207.710
450.02	1988.578
450.23	2105.312
450.45	2310.109
450.66	2086.880
450.87	1949.666
451.08	1896.419
451.29	2289.629
451.50	1853.412
451.71	2015.201
451.92	2418.651
452.13	1998.818
452.35	1894.371
452.56	1927.139
452.77	2084.832
452.98	2158.559
453.19	2123.744
453.40	2074.592
453.61	2408.411
453.82	2041.825
454.03	2047.969
454.25	1847.268
454.46	2017.249
454.67	2166.751
454.88	2138.079
455.09	2158.559
455.30	2156.511
455.51	2123.744
455.72	1986.530
455.93	2076.640
456.14	2219.998
456.35	2226.142
456.56	2070.496
456.78	2054.113
456.99	2166.751
457.20	2265.053
457.41	2074.592
457.62	1968.098
457.83	1871.843
458.04	2279.389
458.25	2254.814
458.46	1972.194
458.67	2394.075
458.88	2213.854
459.09	2039.777
459.30	2226.142
459.51	2072.544
459.73	2107.360
459.94	2248.670
460.15	2031.585
460.36	2228.190
460.57	2226.142
460.78	2179.039
460.99	2185.183
461.20	1828.836
461.41	2029.537
461.62	2271.197
461.83	2492.378
462.04	2353.116
462.25	2330.588
462.46	1961.954
462.67	2033.633
462.88	2219.998
463.09	2619.352
463.30	2099.168
463.51	2105.312
463.72	2420.699
463.93	2306.013
464.15	2351.068
464.36	2387.932
464.57	2138.079
464.78	2246.622
464.99	2197.470
465.20	1894.371
465.41	2090.976
465.62	2125.792
465.83	2162.655
466.04	2113.504
466.25	2146.271
466.46	2228.190
466.67	2162.655
466.88	2138.079
467.09	2133.983
467.30	2267.101
467.51	2082.784
467.72	2236.382
467.93	2095.072
468.14	2109.408
468.35	2207.710
468.56	2047.969
468.77	2236.382
468.98	2531.289
469.19	2232.286
469.40	2318.301
469.61	2269.149
469.82	1986.530
470.03	2179.039
470.24	2090.976
470.45	2521.050
470.66	2101.216
470.87	2205.662
471.08	2236.382
471.29	2205.662
471.50	2219.998
471.71	2213.854
471.92	2129.888
472.13	2430.939
472.34	2238.430
472.55	2312.157
472.76	2252.766
472.97	2191.327
473.18	2457.562
473.39	2074.592
473.60	2310.109
473.81	2172.895
474.01	2318.301
474.22	2263.005
474.43	2174.943
474.64	2211.806
474.85	2263.005
475.06	2183.135
475.27	2324.445
475.48	2281.437
475.69	2174.943
475.90	2428.891
476.11	2482.138
476.32	2172.895
476.53	2537.433
476.74	2254.814
476.95	2066.400
477.16	2265.053
477.37	2570.201
477.58	2318.301
477.79	2365.404
478.00	2453.467
478.21	2170.847
478.41	2183.135
478.62	2166.751
478.83	2367.452
479.04	2306.013
479.25	2136.031
479.46	1939.426
479.67	2133.983
479.88	2201.566
480.09	2367.452
480.30	2437.083
480.51	2691.031
480.72	2373.596
480.93	2344.924
481.14	2097.120
481.34	2287.581
481.55	2045.921
481.76	2267.101
481.97	2328.540
482.18	2308.061
482.39	2109.408
482.60	2193.375
482.81	2293.725
483.02	2033.633
483.23	2414.555
483.44	2344.924
483.65	2289.629
483.85	2027.489
484.06	2422.747
484.27	2109.408
484.48	2084.832
484.69	2133.983
484.90	2240.478
485.11	2183.135
485.32	2076.640
485.53	2308.061
485.73	2813.909
485.94	2228.190
486.15	2043.873
486.36	2285.533
486.57	2066.400
486.78	2295.773
486.99	2189.279
487.20	2246.622
487.41	2570.201
487.61	2035.681
487.82	2230.238
488.03	2340.828
488.24	2097.120
488.45	2158.559
488.66	2209.758
488.87	2236.382
489.08	2443.227
489.28	2457.562
489.49	2252.766
489.70	2338.780
489.91	2289.629
490.12	2127.840
490.33	2131.935
490.54	2076.640
490.74	2213.854
490.95	2201.566
491.16	2217.950
491.37	2465.754
491.58	1968.098
491.79	2033.633
492.00	2011.105
492.20	2158.559
492.41	2170.847
492.62	2027.489
492.83	2328.540
493.04	2400.219
493.25	2258.910
493.45	2033.633
493.66	2340.828
493.87	2242.526
494.08	2109.408
494.29	1961.954
494.50	2226.142
494.70	2424.795
494.91	2504.666
495.12	2166.751
495.33	2168.799
495.54	2711.511
495.75	2357.212
495.95	2232.286
496.16	2279.389
496.37	2424.795
496.58	2185.183
496.79	2299.869
496.99	1925.091
497.20	2488.282
497.41	2541.529
497.62	2117.600
497.83	2236.382
498.04	2281.437
498.24	2359.260
498.45	2201.566
498.66	2287.581
498.87	2217.950
499.08	2529.241
499.28	2031.585
499.49	2076.640
499.70	2254.814
499.91	2330.588
500.12	2084.832
500.32	2187.231
500.53	2287.581
500.74	2582.489
500.95	1996.770
501.15	2140.127
501.36	2146.271
501.57	2131.935
501.78	2154.463
501.99	2093.024
502.19	2045.921
502.40	2226.142
502.61	2226.142
502.82	2203.614
503.02	2156.511
503.23	2281.437
503.44	2213.854
503.65	2322.397
503.86	2154.463
504.06	1945.570
504.27	2392.028
504.48	2047.969
504.69	2179.039
504.89	2093.024
505.10	1998.818
505.31	2170.847
505.52	2346.972
505.72	2060.257
505.93	2009.057
506.14	1843.172
506.35	1914.851
506.55	2052.065
506.76	1996.770
506.97	2093.024
507.18	2383.836
507.38	2306.013
507.59	1908.707
507.80	1994.722
508.01	2252.766
508.21	2217.950
508.42	2400.219
508.63	2109.408
508.84	2082.784
509.04	2093.024
509.25	2111.456
509.46	2203.614
509.67	2093.024
509.87	2082.784
510.08	2219.998
510.29	2119.648
510.49	2238.430
510.70	2234.334
510.91	2203.614
511.12	2164.703
511.32	2025.441
511.53	2164.703
511.74	2056.161
511.94	1923.043
512.15	2093.024
512.36	2160.607
512.57	1804.260
512.77	1832.932
512.98	1802.212
513.19	1949.666
513.39	2045.921
513.60	1961.954
513.81	2328.540
514.01	2271.197
514.22	2349.020
514.43	1994.722
514.64	2013.153
514.84	2424.795
515.05	2158.559
515.26	2054.113
515.46	2172.895
515.67	2322.397
515.88	1890.275
516.08	2043.873
516.29	2117.600
516.50	2074.592
516.70	2041.825
516.91	2273.245
517.12	1853.412
517.32	2056.161
517.53	1984.482
517.74	2015.201
517.95	1845.220
518.15	2197.470
518.36	2095.072
518.57	1763.301
518.77	1982.434
518.98	2121.696
519.19	2170.847
519.39	1826.788
519.60	2041.825
519.80	2428.891
520.01	2105.312
520.22	1970.146
520.42	1976.290
520.63	2201.566
520.84	1925.091
521.04	2060.257
521.25	2187.231
521.46	2029.537
521.66	2023.393
521.87	1824.740
522.08	1849.316
522.28	2111.456
522.49	1861.604
522.70	2086.880
522.90	2015.201
523.11	1865.700
523.31	2029.537
523.52	2107.360
523.73	1910.755
523.93	2101.216
524.14	1912.803
524.35	2041.825
524.55	2082.784
524.76	2273.245
524.97	1955.810
525.17	2035.681
525.38	1914.851
525.58	1957.858
525.79	2107.360
526.00	1945.570
526.20	2201.566
526.41	2142.175
526.61	2037.729
526.82	1955.810
527.03	1861.604
527.23	2281.437
527.44	1699.814
527.64	2039.777
527.85	2113.504
528.06	2127.840
528.26	1955.810
528.47	1974.242
528.68	2031.585
528.88	2174.943
529.09	1869.795
529.29	2058.209
529.50	1869.795
529.70	2023.393
529.91	1964.002
530.12	1873.891
530.32	1992.674
530.53	2226.142
530.73	2017.249
530.94	1916.899
531.15	2093.024
531.35	2078.688
531.56	1957.858
531.76	2054.113
531.97	2191.327
532.17	1961.954
532.38	1892.323
532.59	1939.426
532.79	1980.386
533.00	2029.537
533.20	1888.227
533.41	1888.227
533.61	1972.194
533.82	2093.024
534.03	2015.201
534.23	2013.153
534.44	1933.282
534.64	2072.544
534.85	1865.700
535.05	1894.371
535.26	1832.932
535.46	1949.666
535.67	1945.570
535.88	1974.242
536.08	1966.050
536.29	2023.393
536.49	1945.570
536.70	1931.235
536.90	2277.341
537.11	2359.260
537.31	1972.194
537.52	1867.748
537.72	2021.345
537.93	2047.969
538.13	2070.496
538.34	2002.913
538.55	2246.622
538.75	1837.028
538.96	2060.257
539.16	1865.700
539.37	2113.504
539.57	1812.452
539.78	2199.518
539.98	1834.980
540.19	2359.260
540.39	1978.338
540.60	2052.065
540.80	1806.308
541.01	2019.297
541.21	1880.035
541.42	2011.105
541.62	2037.729
541.83	1902.563
542.03	2133.983
542.24	2041.825
542.44	2125.792
542.65	1933.282
542.85	1906.659
543.06	1904.611
543.26	1959.906
543.47	2066.400
543.67	2148.319
543.88	2013.153
544.08	2121.696
544.29	1912.803
544.49	1914.851
544.70	1714.150
544.90	1953.762
545.11	2144.223
545.31	1978.338
545.52	1945.570
545.72	2011.105
545.93	1937.378
546.13	1896.419
546.34	1814.500
546.54	1933.282
546.75	2007.009
546.95	2041.825
547.15	1847.268
547.36	2056.161
547.56	2023.393
547.77	2181.087
547.97	1867.748
548.18	1933.282
548.38	2084.832
548.59	2246.622
548.79	1888.227
549.00	1751.013
549.20	2037.729
549.41	1947.618
549.61	1980.386
549.81	1933.282
550.02	1998.818
550.22	2043.873
550.43	1847.268
550.63	1875.939
550.84	2027.489
551.04	1935.330
551.25	2054.113
551.45	1898.467
551.65	1880.035
551.86	2228.190
552.06	1902.563
552.27	1732.582
552.47	1826.788
552.68	2109.408
552.88	2013.153
553.08	1970.146
553.29	1863.652
553.49	1900.515
553.70	1929.187
553.90	1800.165
554.11	2039.777
554.31	2172.895
554.51	2023.393
554.72	1968.098
554.92	2056.161
555.13	2050.017
555.33	1880.035
555.53	2013.153
555.74	1970.146
555.94	2093.024
556.15	2015.201
556.35	2043.873
556.56	2310.109
556.76	2068.448
556.96	2064.352
557.17	2011.105
557.37	2090.976
557.58	1890.275
557.78	2023.393
557.98	1818.596
558.19	2029.537
558.39	1994.722
558.59	1775.589
558.80	1869.795
559.00	1910.755
559.21	1961.954
559.41	1923.043
559.61	1953.762
559.82	2193.375
560.02	2111.456
560.23	1828.836
560.43	1794.021
560.63	2062.305
560.84	1869.795
561.04	1945.570
561.24	2011.105
561.45	2011.105
561.65	1685.478
561.85	1875.939
562.06	1933.282
562.26	1914.851
562.47	2107.360
562.67	1865.700
562.87	1824.740
563.08	1865.700
563.28	2033.633
563.48	1955.810
563.69	1787.877
563.89	1974.242
564.09	1988.578
564.30	1902.563
564.50	2123.744
564.70	2043.873
564.91	1990.626
565.11	1691.622
565.31	2050.017
565.52	1880.035
565.72	2054.113
565.92	1976.290
566.13	1841.124
566.33	2189.279
566.53	1916.899
566.74	1910.755
566.94	1912.803
567.14	2172.895
567.35	1974.242
567.55	2017.249
567.75	1904.611
567.96	1828.836
568.16	1865.700
568.36	1949.666
568.57	2031.585
568.77	1708.006
568.97	2021.345
569.18	1972.194
569.38	1853.412
569.58	1980.386
569.79	1998.818
569.99	1992.674
570.19	1970.146
570.39	1966.050
570.60	1826.788
570.80	1734.630
571.00	1769.445
571.21	1841.124
571.41	1816.548
571.61	2148.319
571.82	1953.762
572.02	1882.083
572.22	1906.659
572.42	1914.851
572.63	1871.843
572.83	1701.862
573.03	2041.825
573.24	1945.570
573.44	1800.165
573.64	2158.559
573.84	2078.688
574.05	1902.563
574.25	2115.552
574.45	2166.751
574.66	2000.865
574.86	2004.961
575.06	1923.043
575.26	1845.220
575.47	2058.209
575.67	1834.980
575.87	1937.378
576.07	1814.500
576.28	1800.165
576.48	2015.201
576.68	1843.172
576.88	1810.404
577.09	1955.810
577.29	1814.500
577.49	1847.268
577.69	2031.585
577.90	2301.917
578.10	1984.482
578.30	1943.522
578.50	1877.987
578.71	1961.954
578.91	1802.212
579.11	1904.611
579.31	1908.707
579.52	1877.987
579.72	1847.268
579.92	1974.242
580.12	1794.021
580.33	1955.810
580.53	1949.666
580.73	1773.541
580.93	2002.913
581.13	2248.670
581.34	1839.076
581.54	1931.235
581.74	1943.522
581.94	1863.652
582.15	1882.083
582.35	1783.781
582.55	2035.681
582.75	1853.412
582.95	1785.829
583.16	1691.622
583.36	2101.216
583.56	1662.951
583.76	1646.567
583.96	1810.404
584.17	1859.556
584.37	1916.899
584.57	1927.139
584.77	1757.157
584.97	1896.419
585.18	1931.235
585.38	1912.803
585.58	1894.371
585.78	1966.050
585.98	2232.286
586.19	1839.076
586.39	2078.688
586.59	1847.268
586.79	1986.530
586.99	1763.301
587.20	1949.666
587.40	1841.124
587.60	1701.862
587.80	1796.069
588.00	1996.770
588.20	2064.352
588.41	2078.688
588.61	1845.220
588.81	1920.995
589.01	1990.626
589.21	2025.441
589.41	1880.035
589.62	1937.378
589.82	1662.951
590.02	1724.390
590.22	1859.556
590.42	1843.172
590.62	2154.463
590.83	1798.117
591.03	1906.659
591.23	1771.493
591.43	2158.559
591.63	1894.371
591.83	1920.995
592.03	1955.810
592.24	1824.740
592.44	2009.057
592.64	1617.895
592.84	1832.932
593.04	1810.404
593.24	1920.995
593.44	1925.091
593.65	1853.412
593.85	2097.120
594.05	1994.722
594.25	2086.880
594.45	1914.851
594.65	1880.035
594.85	1931.235
595.06	1855.460
595.26	1920.995
595.46	1714.150
595.66	1968.098
595.86	1679.334
596.06	1769.445
596.26	1742.821
596.46	1726.438
596.66	1959.906
596.87	1845.220
597.07	1920.995
597.27	1751.013
597.47	1857.508
597.67	2197.470
597.87	2086.880
598.07	1644.519
598.27	1906.659
598.47	1824.740
598.67	1990.626
598.88	1726.438
599.08	1851.364
599.28	1634.279
599.48	1839.076
599.68	1998.818
599.88	1734.630
600.08	1933.282
600.28	2064.352
600.48	1814.500
600.68	1916.899
