SpectraSuite Data File
++++++++++++++++++++++++++++++++++++
Date: Wed Feb 01 15:20:46 EET 2017
User: optolab
Spectrometer Serial Number: USB4C02475
Spectrometer Channel: 0
Integration Time (usec): 100000
Spectra Averaged: 1
Boxcar Smoothing: 0
Correct for Electrical Dark: No
Strobe/Lamp Enabled: No
Correct for Detector Non-linearity: No
Correct for Stray Light: No
Number of Pixels in Spectrum: 3648
>>>>>Begin Spectral Data<<<<<
344,91	1058,800
345,13	1058,800
345,35	1058,800
345,57	1013,745
345,79	1093,615
346,00	1402,859
346,22	1275,885
346,44	1314,796
346,66	1302,508
346,87	1243,117
347,09	1290,220
347,31	1251,309
347,53	1241,069
347,74	1368,043
347,96	1343,468
348,18	1251,309
348,40	1257,453
348,61	1273,837
348,83	1376,235
349,05	1396,715
349,27	1288,172
349,48	1277,932
349,70	1298,412
349,92	1341,420
350,14	1353,707
350,35	1370,091
350,57	1392,619
350,79	1343,468
351,01	1314,796
351,22	1349,611
351,44	1368,043
351,66	1214,445
351,87	1411,050
352,09	1472,490
352,31	1472,490
352,53	1423,338
352,74	1404,907
352,96	1368,043
353,18	1308,652
353,40	1339,372
353,61	1345,515
353,83	1396,715
354,05	1390,571
354,26	1310,700
354,48	1402,859
354,70	1290,220
354,92	1343,468
355,13	1392,619
355,35	1406,955
355,57	1341,420
355,78	1374,187
356,00	1374,187
356,22	1312,748
356,44	1386,475
356,65	1404,907
356,87	1380,331
357,09	1390,571
357,30	1329,132
357,52	1392,619
357,74	1333,228
357,95	1337,324
358,17	1388,523
358,39	1372,139
358,60	1345,515
358,82	1329,132
359,04	1392,619
359,26	1271,789
359,47	1329,132
359,69	1431,530
359,91	1343,468
360,12	1402,859
360,34	1345,515
360,56	1265,645
360,77	1316,844
360,99	1398,763
361,21	1322,988
361,42	1339,372
361,64	1468,394
361,86	1421,290
362,07	1298,412
362,29	1374,187
362,51	1306,604
362,72	1322,988
362,94	1353,707
363,16	1417,194
363,37	1318,892
363,59	1351,659
363,81	1314,796
364,02	1464,298
364,24	1296,364
364,46	1378,283
364,67	1357,803
364,89	1294,316
365,11	1384,427
365,32	1376,235
365,54	1388,523
365,76	1390,571
365,97	1394,667
366,19	1413,098
366,41	1292,268
366,62	1443,818
366,84	1325,036
367,05	1325,036
367,27	1296,364
367,49	1284,076
367,70	1372,139
367,92	1374,187
368,14	1378,283
368,35	1368,043
368,57	1275,885
368,79	1357,803
369,00	1349,611
369,22	1296,364
369,43	1402,859
369,65	1406,955
369,87	1322,988
370,08	1456,106
370,30	1353,707
370,51	1325,036
370,73	1345,515
370,95	1378,283
371,16	1333,228
371,38	1390,571
371,60	1320,940
371,81	1472,490
372,03	1382,379
372,24	1363,947
372,46	1421,290
372,68	1353,707
372,89	1308,652
373,11	1341,420
373,32	1359,851
373,54	1337,324
373,76	1337,324
373,97	1275,885
374,19	1400,811
374,40	1404,907
374,62	1314,796
374,84	1314,796
375,05	1267,693
375,27	1413,098
375,48	1275,885
375,70	1341,420
375,92	1359,851
376,13	1384,427
376,35	1359,851
376,56	1259,501
376,78	1368,043
376,99	1308,652
377,21	1372,139
377,43	1349,611
377,64	1421,290
377,86	1388,523
378,07	1316,844
378,29	1345,515
378,51	1308,652
378,72	1374,187
378,94	1259,501
379,15	1316,844
379,37	1304,556
379,58	1409,002
379,80	1304,556
380,01	1351,659
380,23	1329,132
380,45	1331,180
380,66	1349,611
380,88	1361,899
381,09	1392,619
381,31	1466,346
381,52	1363,947
381,74	1318,892
381,95	1353,707
382,17	1345,515
382,39	1363,947
382,60	1439,722
382,82	1294,316
383,03	1314,796
383,25	1269,741
383,46	1390,571
383,68	1314,796
383,89	1423,338
384,11	1345,515
384,32	1253,357
384,54	1331,180
384,76	1312,748
384,97	1341,420
385,19	1218,541
385,40	1376,235
385,62	1382,379
385,83	1386,475
386,05	1314,796
386,26	1322,988
386,48	1322,988
386,69	1314,796
386,91	1341,420
387,12	1335,276
387,34	1349,611
387,55	1232,877
387,77	1228,781
387,98	1273,837
388,20	1400,811
388,41	1339,372
388,63	1370,091
388,84	1404,907
389,06	1386,475
389,27	1306,604
389,49	1290,220
389,70	1400,811
389,92	1351,659
390,13	1347,563
390,35	1263,597
390,56	1392,619
390,78	1298,412
390,99	1308,652
391,21	1361,899
391,42	1365,995
391,64	1312,748
391,85	1343,468
392,07	1314,796
392,28	1343,468
392,50	1380,331
392,71	1220,589
392,93	1286,124
393,14	1308,652
393,36	1419,242
393,57	1429,482
393,79	1365,995
394,00	1333,228
394,22	1320,940
394,43	1337,324
394,65	1415,146
394,86	1292,268
395,08	1261,549
395,29	1304,556
395,50	1435,626
395,72	1284,076
395,93	1333,228
396,15	1425,386
396,36	1339,372
396,58	1380,331
396,79	1365,995
397,01	1329,132
397,22	1339,372
397,44	1349,611
397,65	1331,180
397,87	1232,877
398,08	1386,475
398,29	1312,748
398,51	1458,154
398,72	1302,508
398,94	1398,763
399,15	1304,556
399,37	1378,283
399,58	1304,556
399,80	1249,261
400,01	1343,468
400,22	1382,379
400,44	1402,859
400,65	1384,427
400,87	1357,803
401,08	1388,523
401,30	1300,460
401,51	1361,899
401,72	1386,475
401,94	1298,412
402,15	1310,700
402,37	1327,084
402,58	1259,501
402,80	1380,331
403,01	1273,837
403,22	1318,892
403,44	1345,515
403,65	1357,803
403,87	1294,316
404,08	1306,604
404,30	1329,132
404,51	1312,748
404,72	1409,002
404,94	1415,146
405,15	1419,242
405,37	1363,947
405,58	1345,515
405,79	1357,803
406,01	1363,947
406,22	1308,652
406,44	1294,316
406,65	1376,235
406,86	1404,907
407,08	1363,947
407,29	1404,907
407,51	1357,803
407,72	1484,777
407,93	1427,434
408,15	1482,729
408,36	1382,379
408,58	1400,811
408,79	1497,065
409,00	1394,667
409,22	1421,290
409,43	1378,283
409,64	1570,792
409,86	1515,497
410,07	1466,346
410,29	1445,866
410,50	1458,154
410,71	1517,545
410,93	1556,456
411,14	1449,962
411,35	1597,416
411,57	1503,209
411,78	1521,641
412,00	1535,977
412,21	1634,279
412,42	1593,320
412,64	1726,438
412,85	1593,320
413,06	1626,087
413,28	1742,821
413,49	1673,190
413,70	1765,349
413,92	1759,205
414,13	1710,054
414,34	1726,438
414,56	1877,987
414,77	1724,390
414,98	1839,076
415,20	1857,508
415,41	1884,131
415,63	1961,954
415,84	1953,762
416,05	2011,105
416,27	2004,961
416,48	1953,762
416,69	2050,017
416,91	2041,825
417,12	1976,290
417,33	2162,655
417,55	2240,478
417,76	2219,998
417,97	2226,142
418,19	2316,253
418,40	2217,950
418,61	2322,397
418,83	2404,315
419,04	2541,529
419,25	2598,872
419,46	2543,577
419,68	2508,762
419,89	2676,695
420,10	2721,750
420,32	2914,260
420,53	2779,094
420,74	2846,677
420,96	2842,581
421,17	2949,075
421,38	3106,769
421,60	3110,865
421,81	3063,761
422,02	3223,503
422,23	3452,875
422,45	3436,492
422,66	3563,466
422,87	3551,178
423,09	3801,030
423,30	3723,207
423,51	3864,517
423,73	3921,860
423,94	4147,137
424,15	4169,664
424,36	4169,664
424,58	4505,531
424,79	4491,195
425,00	4556,730
425,22	4632,505
425,43	4890,549
425,64	4913,077
425,85	4982,708
426,07	5177,265
426,28	5263,280
426,49	5369,774
426,71	5705,641
426,92	5906,342
427,13	5885,862
427,34	6170,530
427,56	6162,338
427,77	6537,116
427,98	6436,766
428,19	6657,946
428,41	6739,865
428,62	6733,721
428,83	7278,481
429,04	7245,713
429,26	7587,724
429,47	7671,691
429,68	7862,152
429,89	7751,562
430,11	8335,233
430,32	8249,218
430,53	8699,771
430,74	8542,078
430,96	9043,830
431,17	9164,660
431,38	9332,594
431,59	9863,018
431,81	9756,523
432,02	10051,431
432,23	10475,360
432,44	10620,766
432,66	10889,050
432,87	10796,891
433,08	11325,267
433,29	12001,097
433,51	11962,185
433,72	12629,823
433,93	12468,034
434,14	13147,959
434,35	13160,247
434,57	13768,494
434,78	13764,398
434,99	14049,066
435,20	14561,058
435,42	15017,755
435,63	15398,677
435,84	15587,090
436,05	15933,197
436,26	16512,772
436,48	16932,606
436,69	17381,111
436,90	17766,129
437,11	18425,575
437,32	18489,062
437,54	19381,976
437,75	19799,762
437,96	19883,729
438,17	20870,850
438,38	20897,473
438,60	21618,358
438,81	22036,144
439,02	22423,210
439,23	23234,205
439,44	24176,271
439,66	24088,208
439,87	24686,215
440,08	25167,488
440,29	25241,215
440,50	25878,133
440,72	26574,442
440,93	27280,992
441,14	27342,431
441,35	28384,847
441,56	28737,098
441,77	30176,820
441,99	30264,882
442,20	30455,343
442,41	30486,063
442,62	31260,195
442,83	31376,929
443,04	31684,125
443,26	32480,784
443,47	32529,936
443,68	33484,289
443,89	34102,776
444,10	33725,949
444,31	33824,252
444,53	33586,688
444,74	34944,491
444,95	35110,376
445,16	34860,524
445,37	35065,321
445,58	36257,239
445,80	35392,996
446,01	36011,482
446,22	36138,457
446,43	36158,936
446,64	35773,918
446,85	35964,379
447,06	36240,855
447,28	36609,489
447,49	36339,158
447,70	36003,291
447,91	35771,870
448,12	35534,306
448,33	36638,161
448,54	36099,545
448,76	35945,948
448,97	36302,294
449,18	35114,472
449,39	34608,624
449,60	35272,166
449,81	34964,970
450,02	34596,336
450,23	34858,476
450,45	34811,373
450,66	34287,093
450,87	34612,720
451,08	33592,831
451,29	33644,031
451,50	32884,234
451,71	33459,713
451,92	33205,765
452,13	32386,578
452,35	32714,253
452,56	33156,614
452,77	32617,998
452,98	32689,677
453,19	31917,593
453,40	33031,688
453,61	31821,338
453,82	32704,013
454,03	32386,578
454,25	32411,153
454,46	31933,977
454,67	32347,666
454,88	33437,186
455,09	33637,887
455,30	32695,821
455,51	32599,567
455,72	33414,658
455,93	33320,452
456,14	34702,830
456,35	33916,410
456,56	34192,886
456,78	34866,668
456,99	34438,642
457,20	35100,136
457,41	36306,390
457,62	36246,999
457,83	36574,674
458,04	36507,091
458,25	37764,544
458,46	38487,477
458,67	39042,476
458,88	38948,270
459,09	40222,106
459,30	40478,102
459,51	41153,932
459,73	41106,829
459,94	42065,278
460,15	43122,030
460,36	43486,568
460,57	45696,327
460,78	45667,655
460,99	45833,541
461,20	46656,824
461,41	46204,223
461,62	47183,152
461,83	48551,195
462,04	48694,553
462,25	48680,217
462,46	50076,932
462,67	51416,303
462,88	50894,071
463,09	51045,621
463,30	50982,134
463,51	52776,155
463,72	53013,719
463,93	53157,077
464,15	52282,594
464,36	54668,478
464,57	54852,795
464,78	54838,459
464,99	54957,241
465,20	55823,532
465,41	56161,447
465,62	56267,941
465,83	57756,815
466,04	56317,093
466,25	57363,605
466,46	56870,044
466,67	56691,871
466,88	56921,243
467,09	56853,660
467,30	58072,202
467,51	57119,896
467,72	58057,866
467,93	55585,968
468,14	56685,727
468,35	58049,674
468,56	57281,686
468,77	57943,180
468,98	57031,834
469,19	57511,058
469,40	56435,875
469,61	55778,477
469,82	57363,605
470,03	55864,492
470,24	55196,854
470,45	56718,495
470,66	54985,913
470,87	55489,713
471,08	55311,540
471,29	55372,979
471,50	54127,814
471,71	54910,138
471,92	54746,301
472,13	53460,176
472,34	53636,302
472,55	53632,206
472,76	52196,580
472,97	52374,753
473,18	52688,092
473,39	52233,443
473,60	52192,484
473,81	51557,613
474,01	50423,039
474,22	50849,016
474,43	50885,880
474,64	50185,474
474,85	49077,523
475,06	49966,342
475,27	49499,405
475,48	48952,597
475,69	49274,128
475,90	49257,744
476,11	48020,771
476,32	48053,539
476,53	48012,579
476,74	47852,838
476,95	47275,311
477,16	48270,623
477,37	47967,524
477,58	48004,388
477,79	47101,233
478,00	47635,753
478,21	47467,820
478,41	47494,443
478,62	47715,624
478,83	47684,904
479,04	47144,241
479,25	47189,296
479,46	47590,698
479,67	47134,001
479,88	46964,019
480,09	47207,728
480,30	47512,875
480,51	46787,894
480,72	47609,130
480,93	47775,015
481,14	47703,336
481,34	47830,310
481,55	47482,155
481,76	47869,222
481,97	48119,074
482,18	48432,413
482,39	48366,878
482,60	48397,598
482,81	48524,572
483,02	49222,929
483,23	48782,616
483,44	48905,494
483,65	49065,235
483,85	48594,202
484,06	48723,225
484,27	50033,925
484,48	49104,147
484,69	49978,629
484,90	50334,976
485,11	49992,965
485,32	50023,685
485,53	50515,197
485,73	50179,330
485,94	50330,880
486,15	50763,001
486,36	50562,300
486,57	51045,621
486,78	50883,832
486,99	51399,920
487,20	51657,964
487,41	51117,300
487,61	51672,300
487,82	52022,502
488,03	51322,097
488,24	51356,912
488,45	51504,366
488,66	52298,978
488,87	52088,037
489,08	52448,480
489,28	52528,350
489,49	52696,284
489,70	52964,568
489,91	53058,774
490,12	53073,110
490,33	53101,782
490,54	53701,837
490,74	53445,840
490,95	54248,644
491,16	54502,592
491,37	54033,608
491,58	54762,684
491,79	54729,917
492,00	54379,714
492,20	54881,467
492,41	54994,105
492,62	55563,440
492,83	55770,285
493,04	55483,569
493,25	55661,743
493,45	55504,049
493,66	56366,244
493,87	55831,724
494,08	56681,631
494,29	56749,214
494,50	56857,756
494,70	56679,583
494,91	56368,292
495,12	57040,026
495,33	56720,542
495,54	57730,191
495,75	57382,036
495,95	57683,088
496,16	57179,288
496,37	57355,413
496,58	56982,682
496,79	57037,978
496,99	56765,598
497,20	56929,435
497,41	56968,347
497,62	57339,029
497,83	56843,421
498,04	57646,224
498,24	57418,900
498,45	57617,553
498,66	57523,346
498,87	57781,390
499,08	57642,128
499,28	57164,952
499,49	57474,195
499,70	57265,302
499,91	57357,461
500,12	57783,438
500,32	57468,051
500,53	57439,380
500,74	57412,756
500,95	57818,254
501,15	57054,361
501,36	57119,896
501,57	56659,103
501,78	57492,627
501,99	56513,698
502,19	57080,985
502,40	57250,966
502,61	56331,428
502,82	56892,572
503,02	56822,941
503,23	56476,834
503,44	55932,075
503,65	56351,908
503,86	56360,100
504,06	56269,989
504,27	55760,045
504,48	55493,809
504,69	56030,377
504,89	55254,197
505,10	55495,857
505,31	55370,931
505,52	55479,473
505,72	55002,297
505,93	54944,954
506,14	54621,375
506,35	54414,530
506,55	55047,352
506,76	54543,552
506,97	54109,382
507,18	54230,212
507,38	53867,722
507,59	54645,950
507,80	54314,179
508,01	54342,851
508,21	54596,799
508,42	54140,102
508,63	53634,254
508,84	53918,921
509,04	53238,996
509,25	53202,132
509,46	53830,859
509,67	53638,350
509,87	53310,675
510,08	53073,110
510,29	52952,280
510,49	53224,660
510,70	52798,682
510,91	52997,335
511,12	52790,490
511,32	52653,277
511,53	53286,099
511,74	52993,239
511,94	52686,044
512,15	53173,461
512,36	52329,698
512,57	52983,000
512,77	51995,879
512,98	52741,339
513,19	52014,310
513,39	52491,487
513,60	52372,705
513,81	52204,771
514,01	52104,421
514,22	51971,303
514,43	52350,177
514,64	51971,303
514,84	51662,060
515,05	52110,565
515,26	52167,908
515,46	51920,104
515,67	51838,185
515,88	52344,033
516,08	52036,838
516,29	52606,173
516,50	52479,199
516,70	52597,981
516,91	52743,387
517,12	52493,535
517,32	52630,749
517,53	52389,089
517,74	52002,022
517,95	52626,653
518,15	52681,948
518,36	52331,745
518,57	52856,025
518,77	51866,857
518,98	52106,469
519,19	52454,624
519,39	52268,258
519,60	52151,524
519,80	52501,727
520,01	51930,344
520,22	51938,535
520,42	51991,783
520,63	52415,712
520,84	51936,488
521,04	51862,761
521,25	52063,462
521,46	52305,122
521,66	51860,713
521,87	52014,310
522,08	51705,067
522,28	51840,233
522,49	52384,993
522,70	52155,620
522,90	52004,070
523,11	51551,469
523,31	51522,798
523,52	52065,510
523,73	51219,698
523,93	52296,930
524,14	51502,318
524,35	52034,790
524,55	52059,366
524,76	51805,418
524,97	52088,037
525,17	51776,746
525,38	51793,130
525,58	52206,819
525,79	52430,048
526,00	51733,739
526,20	52010,214
526,41	51719,403
526,61	51700,971
526,82	51328,241
527,03	51580,141
527,23	52047,078
527,44	51735,787
527,64	51215,602
527,85	51483,886
528,06	51950,823
528,26	51680,491
528,47	51553,517
528,68	51522,798
528,88	52055,270
529,09	51795,178
529,29	51492,078
529,50	51166,451
529,70	51301,617
529,91	51932,392
530,12	51795,178
530,32	52270,306
530,53	51844,329
530,73	52090,085
530,94	51551,469
531,15	51733,739
531,35	52075,749
531,56	51553,517
531,76	51864,809
531,97	51995,879
532,17	51068,149
532,38	52708,572
532,59	51354,864
532,79	51975,399
533,00	51465,455
533,20	51852,521
533,41	51045,621
533,61	51522,798
533,82	51655,916
534,03	51707,115
534,23	51311,857
534,44	51066,101
534,64	51444,975
534,85	51567,853
535,05	51176,691
535,26	51152,115
535,46	51234,034
535,67	51270,898
535,88	51158,259
536,08	51604,717
536,29	50949,367
536,49	51356,912
536,70	51416,303
536,90	51526,894
537,11	51432,687
537,31	51639,532
537,52	51487,982
537,72	51389,680
537,93	51657,964
538,13	52352,225
538,34	51438,831
538,55	51369,200
538,75	52110,565
538,96	51496,174
539,16	51956,967
539,37	51797,226
539,57	51377,392
539,78	51868,905
539,98	51811,561
540,19	52227,299
540,39	51969,255
540,60	52051,174
540,80	51991,783
541,01	51944,679
541,21	51449,071
541,42	52466,911
541,62	52362,465
541,83	52221,155
542,03	52126,949
542,24	52184,292
542,44	52319,458
542,65	52698,332
542,85	52202,723
543,06	52657,372
543,26	52501,727
543,47	52397,280
543,67	52489,439
543,88	52401,376
544,08	52059,366
544,29	52151,524
544,49	52272,354
544,70	52700,380
544,90	52311,266
545,11	52251,875
545,31	52378,849
545,52	52778,203
545,72	52800,730
545,93	52528,350
546,13	52847,834
546,34	52905,177
546,54	53494,992
546,75	53179,605
546,95	52638,941
547,15	52733,147
547,36	52520,159
547,56	53765,324
547,77	53382,353
547,97	53060,822
548,18	52888,793
548,38	53529,807
548,59	53613,774
548,79	53136,597
549,00	53167,317
549,20	52909,273
549,41	53071,062
549,61	53345,490
549,81	53118,165
550,02	53683,405
550,22	53937,353
550,43	53220,564
550,63	53443,792
550,84	53720,268
551,04	53562,575
551,25	53560,527
551,45	54152,390
551,65	53677,261
551,86	53568,719
552,06	53837,002
552,27	53529,807
552,47	53667,021
552,68	53710,028
552,88	54387,906
553,08	54312,131
553,29	53761,228
553,49	54457,537
553,70	54176,965
553,90	54222,021
554,11	54039,751
554,31	54553,792
554,51	54088,903
554,72	54443,201
554,92	54547,648
555,13	54623,422
555,33	54584,511
555,53	54156,486
555,74	54609,087
555,94	54721,725
556,15	54568,127
556,35	54561,983
556,56	54557,888
556,76	54865,083
556,96	55108,791
557,17	55125,175
557,37	55041,208
557,58	54895,802
557,78	55131,319
557,98	54985,913
558,19	55209,142
558,39	54897,850
558,59	55026,872
558,80	55430,322
559,00	55137,463
559,21	54627,518
559,41	55458,994
559,61	55778,477
559,82	54965,433
560,02	55104,695
560,23	55172,278
560,43	55424,178
560,63	55604,400
560,84	55551,152
561,04	55454,898
561,24	55649,455
561,45	56095,912
561,65	55209,142
561,85	55680,174
562,06	56065,192
562,26	55704,750
562,47	55372,979
562,67	55880,875
562,87	55635,119
563,08	55917,739
563,28	55772,333
563,48	56237,222
563,69	56032,425
563,89	55850,156
564,09	56018,089
564,30	55950,506
564,50	55815,340
564,70	55704,750
564,91	55735,470
565,11	56290,469
565,31	55964,842
565,52	56528,033
565,72	56317,093
565,92	55737,518
566,13	56444,067
566,33	55987,370
566,53	55852,204
566,74	56044,713
566,94	56214,694
567,14	56210,598
567,35	56659,103
567,55	56321,189
567,75	55755,949
567,96	56384,676
568,16	56274,085
568,36	56597,664
568,57	55645,359
568,77	56243,366
568,97	56061,097
569,18	55975,082
569,38	55549,104
569,58	56622,240
569,79	56159,399
569,99	56200,358
570,19	56061,097
570,39	55954,602
570,60	55807,148
570,80	56505,506
571,00	55772,333
571,21	56366,244
571,41	56085,672
571,61	56341,668
571,82	55946,410
572,02	56485,026
572,22	56169,639
572,42	56413,347
572,63	57019,546
572,83	56564,897
573,03	56081,576
573,24	56763,550
573,44	56312,997
573,64	56722,590
573,84	56777,886
574,05	56738,974
574,25	56405,155
574,45	57015,450
574,66	56810,653
574,86	56911,004
575,06	57025,690
575,26	57054,361
575,47	57326,741
575,67	57199,767
575,87	56302,757
576,07	56978,587
576,28	56865,948
576,48	57089,177
576,68	57232,535
576,88	57339,029
577,09	57171,096
577,29	57918,604
577,49	56269,989
577,69	57427,092
577,90	57023,642
578,10	57652,368
578,30	57693,328
578,50	57400,468
578,71	57363,605
578,91	57308,310
579,11	57212,055
579,31	57455,763
579,52	57089,177
579,72	57906,316
579,92	58262,663
580,12	57402,516
580,33	57238,679
580,53	58043,530
580,73	57334,933
580,93	57871,501
581,13	57414,804
581,34	57349,269
581,54	57785,486
581,74	57511,058
581,94	57115,800
582,15	57517,202
582,35	57148,568
582,55	57715,855
582,75	57732,239
582,95	57562,258
583,16	57746,575
583,36	57574,545
583,56	57400,468
583,76	57945,228
583,96	57986,187
584,17	57375,892
584,37	57666,704
584,57	57834,638
584,77	57896,077
584,97	57853,069
585,18	57736,335
585,38	57635,985
585,58	57896,077
585,78	57678,992
585,98	58012,811
586,19	57830,542
586,39	58326,150
586,59	57928,844
586,79	58082,442
586,99	57834,638
587,20	58307,718
587,40	57824,398
587,60	57801,870
587,80	57906,316
588,00	57977,995
588,20	58387,589
588,41	57605,265
588,61	57836,685
588,81	57851,021
589,01	57126,040
589,21	57902,220
589,41	58074,250
589,62	57422,996
589,82	57343,125
590,02	58066,058
590,22	57392,276
590,42	57220,247
590,62	57212,055
590,83	57660,560
591,03	57617,553
