SpectraSuite Data File
++++++++++++++++++++++++++++++++++++
Date: Wed Jan 25 18:46:32 EET 2017
User: TheoProf
Dark Spectrum Present: Yes
Reference Spectrum Present: Yes
Number of Sampled Component Spectra: 1
Spectrometers: USB4C02475
Integration Time (usec): 64136 (USB4C02475)
Spectra Averaged: 1 (USB4C02475)
Boxcar Smoothing: 0 (USB4C02475)
Correct for Electrical Dark: No (USB4C02475)
Strobe/Lamp Enabled: No (USB4C02475)
Correct for Detector Non-linearity: No (USB4C02475)
Correct for Stray Light: No (USB4C02475)
Number of Pixels in Processed Spectrum: 3648
>>>>>Begin Processed Spectral Data<<<<<
344.91	100.000
345.13	100.000
345.35	100.000
345.57	114.286
345.79	575.000
346.00	152.632
346.22	-550.000
346.44	62.069
346.66	-280.000
346.87	106.897
347.09	-420.000
347.31	60.870
347.53	41.176
347.74	21.053
347.96	150.000
348.18	166.667
348.40	42.105
348.61	84.615
348.83	36.364
349.05	90.164
349.27	4.167
349.48	141.176
349.70	182.353
349.92	51.613
350.14	31.148
350.35	-14.815
350.57	-25.000
350.79	161.765
351.01	60.000
351.22	-150.000
351.44	75.641
351.66	30.000
351.87	27.778
352.09	75.000
352.31	11.429
352.53	35.000
352.74	124.138
352.96	52.000
353.18	9.756
353.40	1200.000
353.61	0.000
353.83	281.818
354.05	-70.000
354.26	19.697
354.48	21.429
354.70	-189.474
354.92	-126.923
355.13	0.000
355.35	79.245
355.57	17.647
355.78	93.548
356.00	45.833
356.22	120.548
356.44	-37.500
356.65	84.615
356.87	53.846
357.09	78.000
357.30	26.531
357.52	183.333
357.74	-1.818
357.95	29.167
358.17	38.636
358.39	23.256
358.60	81.250
358.82	-284.615
359.04	460.000
359.26	-3.922
359.47	22.222
359.69	57.426
359.91	140.000
360.12	-160.000
360.34	121.622
360.56	16.667
360.77	66.667
360.99	-8.621
361.21	55.357
361.42	-8.511
361.64	262.500
361.86	-29.167
362.07	63.415
362.29	36.364
362.51	64.286
362.72	476.923
362.94	64.615
363.16	52.273
363.37	18.750
363.59	128.000
363.81	112.500
364.02	118.367
364.24	-207.692
364.46	67.308
364.67	850.000
364.89	78.788
365.11	-24.074
365.32	35.714
365.54	-89.474
365.76	47.126
365.97	60.606
366.19	-190.909
366.41	-257.143
366.62	45.714
366.84	-271.429
367.05	38.182
367.27	81.818
367.49	29.032
367.70	54.286
367.92	26.316
368.14	16.667
368.35	73.529
368.57	40.506
368.79	71.698
369.00	55.102
369.22	-140.000
369.43	59.375
369.65	-30.000
369.87	62.857
370.08	-58.333
370.30	-400.000
370.51	20.000
370.73	-3.030
370.95	-23.077
371.16	72.222
371.38	562.500
371.60	-566.667
371.81	-65.789
372.03	1.449
372.24	-450.000
372.46	117.241
372.68	120.833
372.89	-21.053
373.11	28.814
373.32	-22.222
373.54	-7.895
373.76	46.939
373.97	94.595
374.19	-56.410
374.40	31.034
374.62	-50.000
374.84	50.000
375.05	12.963
375.27	22.000
375.48	-211.765
375.70	124.138
375.92	-3.846
376.13	56.667
376.35	-3.175
376.56	-471.429
376.78	95.455
376.99	27.692
377.21	-20.930
377.43	134.615
377.64	29.870
377.86	71.429
378.07	100.000
378.29	75.000
378.51	58.025
378.72	13.699
378.94	41.429
379.15	10.526
379.37	-16.000
379.58	-6.250
379.80	22.917
380.01	-47.368
380.23	-17.778
380.45	39.474
380.66	24.638
380.88	-54.545
381.09	-45.312
381.31	118.750
381.52	-4.348
381.74	80.000
381.95	-140.000
382.17	-4.545
382.39	-13.793
382.60	-26.190
382.82	40.000
383.03	-187.500
383.25	-3.750
383.46	-347.368
383.68	-38.636
383.89	52.381
384.11	35.593
384.32	44.186
384.54	26.263
384.76	19.565
384.97	1.961
385.19	2.083
385.40	30.645
385.62	37.931
385.83	63.492
386.05	25.000
386.26	92.593
386.48	-55.738
386.69	30.864
386.91	0.000
387.12	3.077
387.34	-53.846
387.55	-77.778
387.77	-10.959
387.98	25.490
388.20	0.000
388.41	-174.286
388.63	64.000
388.84	110.294
389.06	13.636
389.27	18.812
389.49	50.769
389.70	62.745
389.92	-32.143
390.13	90.816
390.35	35.294
390.56	60.784
390.78	2.273
390.99	50.704
391.21	54.412
391.42	25.926
391.64	-40.000
391.85	127.778
392.07	-600.000
392.28	13.115
392.50	15.556
392.71	-66.129
392.93	1.724
393.14	21.698
393.36	9.434
393.57	-13.978
393.79	-4400.000
394.00	68.627
394.22	-9.722
394.43	9.677
394.65	-30.645
394.86	13.462
395.08	51.899
395.29	14.118
395.50	9.756
395.72	-41.935
395.93	9.774
396.15	23.387
396.36	16.092
396.58	3.478
396.79	-31.081
397.01	29.688
397.22	-2.985
397.44	10.084
397.65	42.500
397.87	-13.514
398.08	15.385
398.29	-7.353
398.51	-4.000
398.72	11.364
398.94	18.421
399.15	-9.901
399.37	38.806
399.58	1.064
399.80	-2.941
400.01	28.571
400.22	37.963
400.44	20.000
400.65	2.941
400.87	-2.586
401.08	1.515
401.30	-20.833
401.51	53.226
401.72	20.645
401.94	25.862
402.15	-10.345
402.37	4.717
402.58	-38.889
402.80	50.685
403.01	-20.988
403.22	36.842
403.44	12.879
403.65	25.000
403.87	26.429
404.08	10.256
404.30	-6.154
404.51	16.102
404.72	23.404
404.94	42.748
405.15	4.730
405.37	3.937
405.58	-12.857
405.79	-9.474
406.01	29.412
406.22	7.200
406.44	10.638
406.65	20.000
406.86	17.219
407.08	13.889
407.29	6.579
407.51	-4.487
407.72	5.556
407.93	32.237
408.15	31.902
408.36	13.139
408.58	10.270
408.79	39.437
409.00	10.968
409.22	-4.918
409.43	-19.858
409.64	-18.750
409.86	1.852
410.07	-3.797
410.29	16.355
410.50	-7.627
410.71	7.843
410.93	-4.278
411.14	17.178
411.35	25.490
411.57	-17.470
411.78	-5.917
412.00	39.860
412.21	-0.685
412.42	1.796
412.64	-15.909
412.85	11.696
413.06	-9.633
413.28	-18.667
413.49	7.729
413.70	2.825
413.92	7.586
414.13	-45.536
414.34	-4.712
414.56	-0.613
414.77	11.176
414.98	-5.236
415.20	9.249
415.41	-5.556
415.63	15.789
415.84	3.431
416.05	35.652
416.27	-0.455
416.48	31.148
416.69	19.369
416.91	12.077
417.12	10.938
417.33	5.485
417.55	-4.651
417.76	-4.598
417.97	6.341
418.19	21.739
418.40	13.736
418.61	13.445
418.83	1.357
419.04	17.568
419.25	1.230
419.46	5.240
419.68	8.571
419.89	-0.535
420.10	16.736
420.32	13.147
420.53	-0.402
420.74	-0.385
420.96	5.976
421.17	10.277
421.38	11.494
421.60	0.000
421.81	3.750
422.02	4.215
422.23	14.108
422.45	10.000
422.66	14.167
422.87	4.962
423.09	-29.956
423.30	0.000
423.51	8.487
423.73	8.225
423.94	5.882
424.15	3.475
424.36	17.813
424.58	1.730
424.79	28.053
425.00	11.268
425.22	10.667
425.43	13.406
425.64	3.571
425.85	-23.482
426.07	6.625
426.28	-6.164
426.49	-1.107
426.71	-5.556
426.92	0.296
427.13	-0.660
427.34	1.515
427.56	3.571
427.77	-1.562
427.98	-11.694
428.19	-17.375
428.41	-7.850
428.62	-11.644
428.83	12.256
429.04	9.627
429.26	9.440
429.47	10.769
429.68	-2.462
429.89	10.714
430.11	10.677
430.32	15.040
430.53	10.952
430.74	-5.590
430.96	11.257
431.17	3.704
431.38	0.323
431.59	-9.786
431.81	8.065
432.02	-3.933
432.23	3.409
432.44	-1.538
432.66	9.218
432.87	-17.629
433.08	5.093
433.29	2.792
433.51	11.029
433.72	11.475
433.93	14.685
434.14	11.033
434.35	-1.937
434.57	9.853
434.78	6.024
434.99	11.853
435.20	6.990
435.42	-2.664
435.63	10.332
435.84	6.678
436.05	13.404
436.26	3.089
436.48	11.776
436.69	12.340
436.90	4.223
437.11	15.829
437.32	5.428
437.54	8.524
437.75	15.109
437.96	0.599
438.17	-2.625
438.38	18.876
438.60	11.007
438.81	7.229
439.02	2.569
439.23	4.444
439.44	2.734
439.66	15.000
439.87	6.783
440.08	19.421
440.29	10.465
440.50	5.631
440.72	2.894
440.93	1.961
441.14	6.119
441.35	6.395
441.56	7.130
441.77	13.957
441.99	18.408
442.20	13.082
442.41	16.816
442.62	13.793
442.83	19.595
443.04	16.530
443.26	19.936
443.47	25.564
443.68	28.620
443.89	22.284
444.10	27.778
444.31	27.949
444.53	38.898
444.74	38.449
444.95	28.391
445.16	39.933
445.37	33.981
445.58	39.194
445.80	45.073
446.01	47.496
446.22	48.376
446.43	48.160
446.64	44.410
446.85	51.756
447.06	51.351
447.28	53.947
447.49	61.164
447.70	72.630
447.91	61.689
448.12	63.333
448.33	76.690
448.54	80.216
448.76	78.094
448.97	71.509
449.18	82.229
449.39	77.029
449.60	77.388
449.81	84.077
450.02	78.138
450.23	81.771
450.45	79.605
450.66	75.723
450.87	85.109
451.08	82.426
451.29	88.317
451.50	81.423
451.71	77.647
451.92	75.368
452.13	80.348
452.35	76.735
452.56	73.658
452.77	93.032
452.98	91.918
453.19	89.783
453.40	94.226
453.61	93.557
453.82	100.259
454.03	89.448
454.25	90.581
454.46	98.398
454.67	85.646
454.88	70.928
455.09	79.663
455.30	83.475
455.51	82.896
455.72	85.294
455.93	91.558
456.14	89.406
456.35	81.859
456.56	92.574
456.78	83.492
456.99	89.552
457.20	87.597
457.41	87.202
457.62	76.809
457.83	82.418
458.04	83.507
458.25	88.705
458.46	82.779
458.67	78.189
458.88	82.961
459.09	79.534
459.30	83.222
459.51	82.927
459.73	87.872
459.94	77.485
460.15	85.174
460.36	86.583
460.57	81.908
460.78	86.703
460.99	82.707
461.20	79.590
461.41	80.188
461.62	84.047
461.83	87.153
462.04	82.519
462.25	85.777
462.46	93.545
462.67	91.738
462.88	93.934
463.09	97.331
463.30	88.655
463.51	93.097
463.72	91.908
463.93	87.596
464.15	89.670
464.36	87.795
464.57	85.462
464.78	80.690
464.99	80.292
465.20	88.257
465.41	92.226
465.62	87.885
465.83	90.486
466.04	94.409
466.25	99.303
466.46	99.098
466.67	93.491
466.88	92.482
467.09	85.607
467.30	87.057
467.51	85.743
467.72	91.446
467.93	87.923
468.14	86.264
468.35	83.698
468.56	84.091
468.77	93.567
468.98	86.172
469.19	89.968
469.40	92.472
469.61	88.391
469.82	90.172
470.03	83.129
470.24	87.907
470.45	81.938
470.66	85.600
470.87	91.094
471.08	90.367
471.29	95.912
471.50	87.933
471.71	85.966
471.92	88.421
472.13	87.022
472.34	91.329
472.55	87.017
472.76	90.468
472.97	87.195
473.18	88.334
473.39	86.979
473.60	91.215
473.81	85.274
474.01	88.198
474.22	88.703
474.43	89.788
474.64	88.751
474.85	86.039
475.06	89.612
475.27	91.370
475.48	85.648
475.69	84.581
475.90	86.813
476.11	88.124
476.32	91.848
476.53	91.011
476.74	92.052
476.95	92.243
477.16	93.165
477.37	92.854
477.58	89.886
477.79	90.356
478.00	87.810
478.21	89.446
478.41	89.744
478.62	91.696
478.83	92.831
479.04	97.972
479.25	95.494
479.46	95.351
479.67	90.891
479.88	90.790
480.09	95.981
480.30	97.608
480.51	95.944
480.72	95.396
480.93	91.131
481.14	91.596
481.34	89.217
481.55	90.115
481.76	89.430
481.97	91.538
482.18	94.737
482.39	90.406
482.60	90.752
482.81	91.004
483.02	93.752
483.23	88.849
483.44	90.468
483.65	90.735
483.85	91.218
484.06	90.173
484.27	94.001
484.48	92.842
484.69	94.316
484.90	97.989
485.11	94.638
485.32	97.706
485.53	98.851
485.73	93.640
485.94	91.874
486.15	88.962
486.36	90.361
486.57	87.783
486.78	89.712
486.99	87.963
487.20	86.599
487.41	86.479
487.61	91.189
487.82	94.798
488.03	93.325
488.24	90.029
488.45	89.984
488.66	86.794
488.87	85.765
489.08	87.744
489.28	87.642
489.49	85.326
489.70	83.095
489.91	82.717
490.12	80.826
490.33	81.617
490.54	83.813
490.74	85.615
490.95	89.246
491.16	83.391
491.37	80.878
491.58	76.575
491.79	75.376
492.00	71.394
492.20	65.996
492.41	62.606
492.62	58.431
492.83	50.788
493.04	49.740
493.25	41.285
493.45	37.202
493.66	30.750
493.87	25.901
494.08	20.520
494.29	18.419
494.50	13.395
494.70	11.757
494.91	10.523
495.12	8.118
495.33	6.471
495.54	5.701
495.75	3.118
495.95	2.760
496.16	2.054
496.37	2.137
496.58	0.285
496.79	1.610
496.99	2.001
497.20	2.258
497.41	1.735
497.62	2.094
497.83	0.849
498.04	0.343
498.24	2.094
498.45	2.053
498.66	1.426
498.87	1.672
499.08	1.714
499.28	1.122
499.49	1.480
499.70	1.510
499.91	0.404
500.12	1.298
500.32	0.470
500.53	1.129
500.74	1.807
500.95	0.888
501.15	0.903
501.36	1.782
501.57	1.106
501.78	0.620
501.99	1.664
502.19	0.813
502.40	1.244
502.61	0.119
502.82	0.904
503.02	1.254
503.23	0.608
503.44	1.399
503.65	0.699
503.86	1.614
504.06	0.815
504.27	1.705
504.48	1.246
504.69	0.421
504.89	0.744
505.10	0.950
505.31	0.978
505.52	1.003
505.72	1.321
505.93	2.364
506.14	0.741
506.35	1.591
506.55	1.497
506.76	0.985
506.97	1.141
507.18	0.440
507.38	0.919
507.59	0.714
507.80	0.155
508.01	1.264
508.21	0.550
508.42	0.995
508.63	0.050
508.84	1.097
509.04	0.236
509.25	0.375
509.46	0.681
509.67	0.000
509.87	1.016
510.08	1.017
510.29	0.648
510.49	0.494
510.70	1.177
510.91	1.183
511.12	0.281
511.32	0.609
511.53	1.273
511.74	0.963
511.94	1.361
512.15	-0.046
512.36	1.177
512.57	1.199
512.77	-0.060
512.98	0.519
513.19	0.512
513.39	0.453
513.60	1.212
513.81	-0.227
514.01	0.062
514.22	0.691
514.43	1.000
514.64	1.340
514.84	0.412
515.05	0.351
515.26	1.235
515.46	0.458
515.67	0.694
515.88	0.378
516.08	0.324
516.29	1.039
516.50	1.466
516.70	0.375
516.91	0.932
517.12	0.734
517.32	1.055
517.53	1.321
517.74	0.499
517.95	0.700
518.15	0.702
518.36	0.939
518.57	0.791
518.77	0.737
518.98	1.115
519.19	0.514
519.39	1.197
519.60	1.135
519.80	1.244
520.01	0.306
520.22	0.718
520.42	0.545
520.63	0.366
520.84	0.933
521.04	-0.227
521.25	0.383
521.46	0.694
521.66	0.970
521.87	0.361
522.08	0.703
522.28	0.768
522.49	0.851
522.70	0.590
522.90	0.065
523.11	0.726
523.31	1.014
523.52	0.674
523.73	0.766
523.93	1.341
524.14	0.354
524.35	0.809
524.55	1.233
524.76	0.156
524.97	1.304
525.17	1.085
525.38	1.119
525.58	1.132
525.79	0.431
526.00	0.687
526.20	0.941
526.41	1.290
526.61	1.006
526.82	1.129
527.03	0.798
527.23	0.888
527.44	0.589
527.64	0.839
527.85	0.528
528.06	0.799
528.26	0.742
528.47	1.401
528.68	0.636
528.88	0.501
529.09	0.704
529.29	1.106
529.50	0.694
529.70	1.032
529.91	0.654
530.12	1.014
530.32	1.182
530.53	0.926
530.73	0.967
530.94	0.427
531.15	0.513
531.35	1.505
531.56	0.921
531.76	1.102
531.97	1.254
532.17	1.083
532.38	1.475
532.59	1.480
532.79	1.020
533.00	1.650
533.20	1.374
533.41	0.455
533.61	1.409
533.82	1.530
534.03	1.737
534.23	0.955
534.44	1.370
534.64	1.393
534.85	1.566
535.05	1.408
535.26	0.756
535.46	1.075
535.67	1.612
535.88	1.523
536.08	1.630
536.29	1.303
536.49	1.288
536.70	1.505
536.90	1.507
537.11	1.935
537.31	1.059
537.52	1.613
537.72	2.027
537.93	1.408
538.13	2.095
538.34	2.067
538.55	1.899
538.75	2.153
538.96	1.903
539.16	1.907
539.37	2.864
539.57	2.400
539.78	2.262
539.98	2.458
540.19	2.871
540.39	3.518
540.60	3.747
540.80	4.481
541.01	5.687
541.21	6.608
541.42	7.692
541.62	8.486
541.83	10.388
542.03	11.939
542.24	13.484
542.44	15.502
542.65	17.566
542.85	19.795
543.06	21.277
543.26	23.703
543.47	25.441
543.67	27.974
543.88	29.998
544.08	33.407
544.29	33.018
544.49	35.565
544.70	37.314
544.90	39.865
545.11	44.146
545.31	46.551
545.52	47.912
545.72	50.366
545.93	52.000
546.13	53.524
546.34	55.424
546.54	57.941
546.75	63.703
546.95	69.216
547.15	75.047
547.36	77.088
547.56	78.275
547.77	81.828
547.97	84.095
548.18	85.179
548.38	84.012
548.59	85.626
548.79	88.273
549.00	90.410
549.20	90.734
549.41	92.953
549.61	91.327
549.81	90.576
550.02	87.770
550.22	85.331
550.43	84.757
550.63	87.733
550.84	86.750
551.04	88.785
551.25	88.117
551.45	89.320
551.65	89.058
551.86	89.342
552.06	91.015
552.27	91.194
552.47	92.679
552.68	94.492
552.88	96.537
553.08	97.272
553.29	97.198
553.49	98.345
553.70	98.244
553.90	97.758
554.11	98.599
554.31	98.583
554.51	98.754
554.72	98.639
554.92	97.619
555.13	98.715
555.33	97.734
555.53	99.095
555.74	97.714
555.94	94.603
556.15	94.454
556.35	92.374
556.56	94.502
556.76	93.641
556.96	95.619
557.17	95.574
557.37	95.498
557.58	94.915
557.78	95.760
557.98	98.104
558.19	99.832
558.39	98.693
558.59	95.353
558.80	94.353
559.00	93.797
559.21	94.037
559.41	92.170
559.61	92.061
559.82	91.512
560.02	90.500
560.23	89.444
560.43	88.659
560.63	89.176
560.84	90.876
561.04	95.321
561.24	96.018
561.45	98.480
561.65	99.197
561.85	98.415
562.06	95.953
562.26	94.616
562.47	94.660
562.67	93.786
562.87	92.761
563.08	90.605
563.28	91.500
563.48	90.635
563.69	90.660
563.89	92.037
564.09	92.696
564.30	92.902
564.50	92.844
564.70	91.451
564.91	90.559
565.11	89.559
565.31	88.822
565.52	86.319
565.72	87.807
565.92	85.932
566.13	85.796
566.33	88.409
566.53	89.201
566.74	90.974
566.94	92.580
567.14	94.348
567.35	94.466
567.55	94.245
567.75	92.165
567.96	91.258
568.16	90.520
568.36	87.855
568.57	88.776
568.77	91.870
568.97	91.828
569.18	92.904
569.38	92.198
569.58	91.627
569.79	91.469
569.99	92.931
570.19	91.823
570.39	93.638
570.60	93.279
570.80	92.512
571.00	92.307
571.21	91.966
571.41	94.125
571.61	94.074
571.82	91.192
572.02	92.875
572.22	92.181
572.42	92.018
572.63	92.502
572.83	94.244
573.03	92.690
573.24	92.030
573.44	92.101
573.64	92.840
573.84	94.341
574.05	95.692
574.25	96.749
574.45	97.199
574.66	97.983
574.86	96.726
575.06	98.475
575.26	96.697
575.47	97.158
575.67	93.804
575.87	91.757
576.07	90.940
576.28	90.915
576.48	89.444
576.68	91.103
576.88	92.845
577.09	95.296
577.29	95.806
577.49	94.943
577.69	94.428
577.90	93.572
578.10	95.503
578.30	94.220
578.50	91.638
578.71	91.114
578.91	92.377
579.11	91.934
579.31	96.002
579.52	98.556
579.72	100.553
579.92	96.648
580.12	95.173
580.33	91.722
580.53	90.895
580.73	88.354
580.93	88.252
581.13	90.390
581.34	90.709
581.54	92.563
581.74	97.719
581.94	97.087
582.15	95.963
582.35	95.166
582.55	90.915
582.75	90.996
582.95	91.456
583.16	90.576
583.36	89.412
583.56	89.501
583.76	90.098
583.96	90.376
584.17	91.723
584.37	91.789
584.57	94.247
584.77	91.730
584.97	91.151
585.18	87.655
585.38	84.801
585.58	84.551
585.78	87.475
585.98	92.480
586.19	97.024
586.39	99.251
586.59	101.231
586.79	95.928
586.99	94.365
587.20	91.358
587.40	89.098
587.60	88.072
587.80	90.095
588.00	89.647
588.20	90.490
588.41	92.560
588.61	94.042
588.81	92.282
589.01	89.757
589.21	88.922
589.41	90.070
589.62	89.456
589.82	88.333
590.02	88.129
590.22	88.990
590.42	89.873
590.62	91.331
590.83	90.743
591.03	90.642
591.23	92.367
591.43	93.120
591.63	93.358
591.83	93.732
592.03	90.806
592.24	90.194
592.44	89.122
592.64	88.787
592.84	86.933
593.04	85.959
593.24	86.790
593.44	89.675
593.65	90.672
593.85	92.620
594.05	93.481
594.25	95.188
594.45	95.079
594.65	93.957
594.85	92.633
595.06	87.943
595.26	85.543
595.46	84.317
595.66	83.331
595.86	84.601
596.06	88.249
596.26	89.646
596.46	92.166
596.66	93.678
596.87	94.554
597.07	94.500
597.27	94.802
597.47	93.558
597.67	92.544
597.87	88.972
598.07	88.185
598.27	88.129
598.47	82.696
598.67	80.995
598.88	76.720
599.08	71.912
599.28	69.047
599.48	64.483
599.68	62.393
599.88	58.162
600.08	55.271
600.28	52.542
600.48	49.761
600.68	46.307
600.88	43.072
601.09	37.895
601.29	34.461
601.49	30.817
601.69	25.214
601.89	22.801
602.09	19.733
602.29	16.723
602.49	14.103
602.69	11.034
602.89	8.908
603.09	7.280
603.29	5.993
603.49	4.516
603.69	3.882
603.90	3.058
604.10	2.649
604.30	2.175
604.50	1.931
604.70	1.796
604.90	1.337
605.10	1.580
605.30	1.293
605.50	1.210
605.70	0.906
605.90	1.356
606.10	0.909
606.30	1.175
606.50	1.027
606.70	0.902
606.90	1.023
607.10	0.912
607.30	0.768
607.50	1.031
607.70	0.957
607.90	0.867
608.10	0.945
608.30	0.879
608.50	0.906
608.70	0.694
608.90	0.826
609.11	0.776
609.31	0.919
609.51	0.678
609.71	0.719
609.91	0.582
610.11	0.604
610.31	0.618
610.51	0.937
610.71	1.141
610.91	1.103
611.11	1.258
611.31	1.350
611.51	1.627
611.71	1.263
611.91	0.912
612.11	1.047
612.31	1.179
612.51	1.141
612.71	0.950
612.91	0.980
613.11	0.945
613.31	0.613
613.51	0.788
613.71	0.724
613.91	0.892
614.11	0.888
614.31	0.785
614.50	0.765
614.70	0.675
614.90	0.832
615.10	0.502
615.30	0.911
615.50	0.815
615.70	0.557
615.90	0.736
616.10	0.659
616.30	0.793
616.50	0.560
616.70	0.615
616.90	0.417
617.10	0.545
617.30	0.426
617.50	0.637
617.70	0.493
617.90	0.409
618.10	0.820
618.30	0.632
618.50	0.452
618.70	0.722
618.90	0.643
619.10	0.662
619.30	0.565
619.49	0.492
619.69	0.774
619.89	0.438
620.09	0.571
620.29	0.704
620.49	0.623
620.69	0.384
620.89	0.592
621.09	0.610
621.29	0.804
621.49	0.592
621.69	0.703
621.89	0.399
622.09	0.604
622.29	0.656
622.48	0.606
622.68	0.534
622.88	0.536
623.08	0.710
623.28	0.329
623.48	0.548
623.68	0.567
623.88	0.528
624.08	0.637
624.28	0.723
624.48	0.622
624.67	0.604
624.87	0.719
625.07	0.717
625.27	0.646
625.47	0.666
625.67	0.422
625.87	0.790
626.07	0.693
626.27	0.542
626.47	0.950
626.66	0.662
626.86	0.566
627.06	0.452
627.26	0.447
627.46	0.578
627.66	0.825
627.86	0.632
628.06	0.697
628.25	0.809
628.45	0.660
628.65	0.670
628.85	0.837
629.05	0.826
629.25	0.757
629.45	0.857
629.65	0.893
629.84	0.687
630.04	0.843
630.24	0.694
630.44	1.048
630.64	0.689
630.84	0.615
631.04	0.981
631.23	0.845
631.43	0.869
631.63	0.788
631.83	0.910
632.03	0.983
632.23	0.740
632.42	0.939
632.62	0.831
632.82	0.837
633.02	0.897
633.22	0.708
633.42	1.182
633.62	0.999
633.81	0.819
634.01	0.993
634.21	0.971
634.41	1.197
634.61	0.873
634.80	1.014
635.00	1.033
635.20	1.316
635.40	1.251
635.60	1.060
635.80	1.095
635.99	1.426
636.19	1.194
636.39	0.942
636.59	1.367
636.79	1.477
636.98	1.144
637.18	1.560
637.38	1.455
637.58	1.527
637.78	1.651
637.97	1.654
638.17	2.123
