SpectraSuite Data File
++++++++++++++++++++++++++++++++++++
Date: Wed Jan 25 18:52:35 EET 2017
User: TheoProf
Dark Spectrum Present: Yes
Reference Spectrum Present: Yes
Number of Sampled Component Spectra: 1
Spectrometers: USB4C02475
Integration Time (usec): 64136 (USB4C02475)
Spectra Averaged: 1 (USB4C02475)
Boxcar Smoothing: 0 (USB4C02475)
Correct for Electrical Dark: No (USB4C02475)
Strobe/Lamp Enabled: No (USB4C02475)
Correct for Detector Non-linearity: No (USB4C02475)
Correct for Stray Light: No (USB4C02475)
Number of Pixels in Processed Spectrum: 3648
>>>>>Begin Processed Spectral Data<<<<<
344.91	150.000
345.13	150.000
345.35	150.000
345.57	242.857
345.79	800.000
346.00	136.842
346.22	825.000
346.44	24.138
346.66	-280.000
346.87	93.103
347.09	620.000
347.31	69.565
347.53	7.843
347.74	57.895
347.96	57.143
348.18	266.667
348.40	157.895
348.61	61.538
348.83	130.303
349.05	68.852
349.27	45.833
349.48	-5.882
349.70	176.471
349.92	-32.258
350.14	109.836
350.35	-7.407
350.57	58.333
350.79	38.235
351.01	72.308
351.22	-290.000
351.44	43.590
351.66	-350.000
351.87	-66.667
352.09	37.500
352.31	102.857
352.53	26.667
352.74	13.793
352.96	30.000
353.18	9.756
353.40	700.000
353.61	-2.381
353.83	281.818
354.05	-250.000
354.26	-3.030
354.48	47.619
354.70	-226.316
354.92	-80.769
355.13	117.241
355.35	30.189
355.57	78.431
355.78	54.839
356.00	91.667
356.22	78.082
356.44	25.000
356.65	5.769
356.87	161.538
357.09	80.000
357.30	17.347
357.52	483.333
357.74	-16.364
357.95	283.333
358.17	129.545
358.39	34.884
358.60	15.625
358.82	30.769
359.04	-220.000
359.26	7.843
359.47	-22.222
359.69	31.683
359.91	-5.000
360.12	230.000
360.34	59.459
360.56	100.000
360.77	-10.256
360.99	5.172
361.21	14.286
361.42	6.383
361.64	187.500
361.86	-70.833
362.07	12.195
362.29	38.636
362.51	20.238
362.72	161.538
362.94	80.000
363.16	34.091
363.37	7.812
363.59	-32.000
363.81	-50.000
364.02	100.000
364.24	-100.000
364.46	101.923
364.67	1225.000
364.89	-45.455
365.11	55.556
365.32	-39.286
365.54	-100.000
365.76	20.690
365.97	39.394
366.19	-0.000
366.41	121.429
366.62	108.571
366.84	628.571
367.05	-29.091
367.27	-39.394
367.49	-0.000
367.70	60.000
367.92	36.842
368.14	7.143
368.35	-2.941
368.57	40.506
368.79	54.717
369.00	67.347
369.22	-200.000
369.43	26.563
369.65	75.000
369.87	114.286
370.08	-36.111
370.30	120.000
370.51	60.000
370.73	-1.515
370.95	-19.231
371.16	33.333
371.38	325.000
371.60	766.667
371.81	-2.632
372.03	79.710
372.24	375.000
372.46	-13.793
372.68	58.333
372.89	7.018
373.11	-35.593
373.32	100.000
373.54	-63.158
373.76	36.735
373.97	18.919
374.19	-5.128
374.40	44.828
374.62	-115.625
374.84	100.000
375.05	62.963
375.27	-12.000
375.48	47.059
375.70	-48.276
375.92	50.000
376.13	6.667
376.35	41.270
376.56	-185.714
376.78	-34.091
376.99	13.846
377.21	-125.581
377.43	196.154
377.64	63.636
377.86	85.714
378.07	-420.000
378.29	6.818
378.51	29.630
378.72	-9.589
378.94	44.286
379.15	5.263
379.37	38.000
379.58	331.250
379.80	87.500
380.01	-76.316
380.23	91.111
380.45	-65.789
380.66	-53.623
380.88	31.818
381.09	-3.125
381.31	-3.125
381.52	-17.391
381.74	91.579
381.95	-380.000
382.17	4.545
382.39	-53.448
382.60	38.095
382.82	-40.000
383.03	-168.750
383.25	32.500
383.46	-78.947
383.68	-9.091
383.89	41.905
384.11	38.983
384.32	18.605
384.54	54.545
384.76	47.826
384.97	58.824
385.19	22.917
385.40	-8.065
385.62	22.414
385.83	19.048
386.05	111.667
386.26	-103.704
386.48	9.836
386.69	-4.938
386.91	0.000
387.12	38.462
387.34	-17.308
387.55	-294.444
387.77	35.616
387.98	26.471
388.20	31.579
388.41	-108.571
388.63	10.000
388.84	58.824
389.06	1.515
389.27	35.644
389.49	47.692
389.70	84.314
389.92	-60.714
390.13	79.592
390.35	-23.529
390.56	25.490
390.78	-3.409
390.99	4.225
391.21	0.000
391.42	20.988
391.64	40.000
391.85	27.778
392.07	-350.000
392.28	9.836
392.50	12.222
392.71	-54.839
392.93	12.069
393.14	15.094
393.36	37.736
393.57	3.226
393.79	-3500.000
394.00	23.529
394.22	-4.167
394.43	17.204
394.65	9.677
394.86	22.115
395.08	36.709
395.29	58.824
395.50	-35.366
395.72	-119.355
395.93	-0.752
396.15	55.645
396.36	47.126
396.58	19.130
396.79	31.081
397.01	95.312
397.22	8.955
397.44	4.202
397.65	32.500
397.87	24.324
398.08	9.402
398.29	7.353
398.51	21.333
398.72	13.636
398.94	-28.070
399.15	-10.891
399.37	29.851
399.58	12.766
399.80	-5.882
400.01	19.048
400.22	-29.630
400.44	2.222
400.65	8.824
400.87	-12.069
401.08	13.636
401.30	-25.000
401.51	20.968
401.72	27.742
401.94	4.310
402.15	-23.276
402.37	22.642
402.58	-34.722
402.80	-24.658
403.01	-44.444
403.22	-8.421
403.44	25.758
403.65	51.471
403.87	24.286
404.08	17.949
404.30	-15.385
404.51	32.203
404.72	38.298
404.94	28.244
405.15	29.054
405.37	21.260
405.58	-58.571
405.79	-14.737
406.01	13.072
406.22	4.800
406.44	-2.837
406.65	1.250
406.86	6.623
407.08	-30.556
407.29	16.447
407.51	18.590
407.72	0.000
407.93	38.158
408.15	4.294
408.36	13.139
408.58	29.730
408.79	-1.408
409.00	44.516
409.22	29.508
409.43	29.078
409.64	-12.500
409.86	-11.111
410.07	-5.696
410.29	14.019
410.50	-16.949
410.71	-14.379
410.93	14.973
411.14	15.337
411.35	10.458
411.57	0.000
411.78	9.467
412.00	27.273
412.21	-17.123
412.42	-22.754
412.64	-10.606
412.85	39.181
413.06	5.963
413.28	4.667
413.49	3.865
413.70	25.989
413.92	6.207
414.13	-18.750
414.34	10.471
414.56	4.294
414.77	2.941
414.98	6.806
415.20	12.717
415.41	25.000
415.63	13.596
415.84	25.490
416.05	16.957
416.27	-4.091
416.48	27.459
416.69	31.081
416.91	30.918
417.12	23.958
417.33	28.692
417.55	4.651
417.76	7.471
417.97	19.024
418.19	34.058
418.40	30.769
418.61	40.336
418.83	16.742
419.04	49.099
419.25	44.262
419.46	36.681
419.68	35.238
419.89	23.529
420.10	31.381
420.32	30.677
420.53	24.900
420.74	48.462
420.96	49.402
421.17	42.292
421.38	19.923
421.60	28.333
421.81	32.917
422.02	41.379
422.23	36.100
422.45	37.407
422.66	52.500
422.87	32.824
423.09	11.454
423.30	50.926
423.51	49.446
423.73	52.814
423.94	47.059
424.15	38.610
424.36	47.500
424.58	31.834
424.79	40.594
425.00	40.141
425.22	51.667
425.43	43.116
425.64	37.338
425.85	20.243
426.07	31.861
426.28	36.986
426.49	34.317
426.71	27.193
426.92	28.107
427.13	24.422
427.34	38.788
427.56	47.321
427.77	41.406
427.98	27.419
428.19	31.274
428.41	49.488
428.62	36.301
428.83	35.933
429.04	24.845
429.26	41.003
429.47	48.615
429.68	45.231
429.89	41.071
430.11	41.667
430.32	40.369
430.53	36.667
430.74	40.994
430.96	51.832
431.17	52.991
431.38	41.613
431.59	46.789
431.81	55.376
432.02	39.888
432.23	50.227
432.44	54.872
432.66	66.760
432.87	57.447
433.08	59.028
433.29	61.168
433.51	61.765
433.72	62.529
433.93	63.403
434.14	64.789
434.35	60.291
434.57	51.782
434.78	69.880
434.99	76.293
435.20	76.117
435.42	81.557
435.63	88.007
435.84	81.849
436.05	91.887
436.26	71.042
436.48	71.402
436.69	75.745
436.90	66.987
437.11	67.225
437.32	67.223
437.54	67.360
437.75	68.986
437.96	59.281
438.17	77.088
438.38	79.116
438.60	68.657
438.81	62.651
439.02	61.660
439.23	56.111
439.44	62.891
439.66	58.929
439.87	63.953
440.08	68.182
440.29	64.729
440.50	56.311
440.72	49.357
440.93	53.476
441.14	61.759
441.35	62.403
441.56	60.606
441.77	67.488
441.99	59.536
442.20	70.789
442.41	69.052
442.62	67.241
442.83	62.500
443.04	75.123
443.26	70.813
443.47	70.677
443.68	75.758
443.89	80.847
444.10	75.448
444.31	75.136
444.53	71.953
444.74	66.930
444.95	76.854
445.16	70.134
445.37	68.932
445.58	71.290
445.80	72.213
446.01	71.729
446.22	72.479
446.43	66.258
446.64	60.643
446.85	61.832
447.06	65.149
447.28	63.012
447.49	73.113
447.70	66.514
447.91	71.644
448.12	62.667
448.33	65.793
448.54	66.461
448.76	62.589
448.97	65.867
449.18	71.244
449.39	63.400
449.60	59.831
449.81	64.881
450.02	65.585
450.23	57.031
450.45	53.684
450.66	54.465
450.87	60.334
451.08	56.559
451.29	59.249
451.50	49.802
451.71	46.144
451.92	46.569
452.13	57.463
452.35	51.671
452.56	53.558
452.77	61.161
452.98	62.466
453.19	60.153
453.40	62.598
453.61	71.409
453.82	70.596
454.03	66.871
454.25	64.000
454.46	73.298
454.67	67.823
454.88	64.948
455.09	61.011
455.30	63.670
455.51	66.249
455.72	65.176
455.93	71.299
456.14	65.076
456.35	64.838
456.56	67.698
456.78	62.708
456.99	66.667
457.20	60.133
457.41	62.907
457.62	57.780
457.83	60.440
458.04	58.455
458.25	56.995
458.46	54.582
458.67	55.501
458.88	56.550
459.09	52.077
459.30	52.556
459.51	48.144
459.73	53.936
459.94	50.682
460.15	42.638
460.36	44.691
460.57	41.764
460.78	35.701
460.99	37.642
461.20	30.231
461.41	30.828
461.62	32.726
461.83	26.476
462.04	28.963
462.25	23.675
462.46	22.364
462.67	23.424
462.88	24.697
463.09	17.349
463.30	17.227
463.51	15.703
463.72	10.733
463.93	12.659
464.15	10.243
464.36	11.260
464.57	6.265
464.78	5.580
464.99	7.591
465.20	3.914
465.41	5.887
465.62	3.011
465.83	4.220
466.04	3.228
466.25	0.930
466.46	6.466
466.67	2.959
466.88	-0.365
467.09	1.851
467.30	2.044
467.51	4.752
467.72	3.477
467.93	1.767
468.14	1.854
468.35	2.054
468.56	4.026
468.77	2.599
468.98	-0.576
469.19	0.568
469.40	4.932
469.61	-0.505
469.82	3.931
470.03	-0.368
470.24	0.000
470.45	0.057
470.66	3.041
470.87	4.848
471.08	0.963
471.29	1.600
471.50	1.117
471.71	2.955
471.92	1.274
472.13	1.830
472.34	0.742
472.55	0.429
472.76	2.707
472.97	-0.488
473.18	1.085
473.39	1.424
473.60	0.602
473.81	1.107
474.01	1.383
474.22	3.638
474.43	0.099
474.64	1.982
474.85	2.461
475.06	1.123
475.27	2.064
475.48	0.046
475.69	1.533
475.90	0.792
476.11	2.726
476.32	0.787
476.53	1.034
476.74	1.212
476.95	1.906
477.16	2.179
477.37	0.976
477.58	1.559
477.79	0.129
478.00	1.009
478.21	0.733
478.41	2.324
478.62	0.945
478.83	1.602
479.04	0.852
479.25	1.660
479.46	0.512
479.67	1.688
479.88	2.209
480.09	-0.309
480.30	1.831
480.51	0.442
480.72	1.511
480.93	1.375
481.14	1.186
481.34	1.475
481.55	1.726
481.76	1.889
481.97	1.880
482.18	2.416
482.39	2.047
482.60	1.634
482.81	0.270
483.02	2.239
483.23	1.250
483.44	2.617
483.65	1.846
483.85	3.234
484.06	1.790
484.27	2.602
484.48	3.126
484.69	3.182
484.90	3.205
485.11	2.958
485.32	2.905
485.53	3.358
485.73	3.957
485.94	3.420
486.15	2.738
486.36	3.844
486.57	3.916
486.78	2.959
486.99	2.705
487.20	3.123
487.41	2.559
487.61	2.646
487.82	4.046
488.03	4.820
488.24	3.936
488.45	2.968
488.66	1.674
488.87	3.769
489.08	2.894
489.28	3.238
489.49	2.970
489.70	4.072
489.91	2.348
490.12	3.888
490.33	3.108
490.54	4.059
490.74	3.858
490.95	3.367
491.16	2.036
491.37	1.757
491.58	3.832
491.79	2.666
492.00	2.755
492.20	3.197
492.41	2.653
492.62	2.145
492.83	2.968
493.04	2.983
493.25	1.865
493.45	2.431
493.66	2.643
493.87	3.040
494.08	0.688
494.29	2.346
494.50	2.400
494.70	2.233
494.91	2.592
495.12	2.361
495.33	2.620
495.54	2.738
495.75	1.795
495.95	1.923
496.16	1.942
496.37	1.964
496.58	1.600
496.79	1.954
496.99	2.711
497.20	2.631
497.41	2.711
497.62	1.756
497.83	1.167
498.04	0.664
498.24	2.265
498.45	2.434
498.66	1.937
498.87	2.053
499.08	2.210
499.28	1.408
499.49	1.598
499.70	1.312
499.91	0.750
500.12	1.609
500.32	1.311
500.53	1.250
500.74	2.515
500.95	2.542
501.15	1.826
501.36	2.218
501.57	3.218
501.78	2.381
501.99	4.169
502.19	3.435
502.40	4.038
502.61	3.636
502.82	4.578
503.02	3.993
503.23	4.483
503.44	5.522
503.65	5.488
503.86	7.001
504.06	7.560
504.27	7.832
504.48	8.795
504.69	8.941
504.89	10.583
505.10	10.414
505.31	12.440
505.52	12.681
505.72	14.402
505.93	16.158
506.14	15.796
506.35	15.710
506.55	17.709
506.76	18.491
506.97	19.847
507.18	20.887
507.38	21.682
507.59	24.473
507.80	24.668
508.01	27.004
508.21	26.225
508.42	28.311
508.63	30.484
508.84	30.823
509.04	34.059
509.25	34.919
509.46	35.915
509.67	35.019
509.87	36.261
510.08	38.453
510.29	40.511
510.49	40.418
510.70	40.762
510.91	40.454
511.12	40.716
511.32	40.350
511.53	40.385
511.74	40.581
511.94	40.554
512.15	39.848
512.36	40.152
512.57	39.541
512.77	39.958
512.98	39.960
513.19	41.503
513.39	41.785
513.60	42.549
513.81	42.201
514.01	43.877
514.22	43.721
514.43	44.865
514.64	44.718
514.84	46.861
515.05	46.400
515.26	47.092
515.46	46.329
515.67	45.166
515.88	44.457
516.08	44.400
516.29	46.245
516.50	46.717
516.70	47.735
516.91	49.268
517.12	48.899
517.32	47.855
517.53	48.084
517.74	47.858
517.95	46.934
518.15	45.725
518.36	46.642
518.57	44.936
518.77	47.293
518.98	47.016
519.19	47.974
519.39	49.017
519.60	50.711
519.80	50.816
520.01	50.417
520.22	50.440
520.42	52.283
520.63	52.081
520.84	51.825
521.04	52.085
521.25	51.933
521.46	51.621
521.66	53.728
521.87	55.406
522.08	59.327
522.28	60.714
522.49	62.654
522.70	64.811
522.90	67.236
523.11	70.270
523.31	72.608
523.52	75.421
523.73	76.472
523.93	76.785
524.14	77.805
524.35	78.050
524.55	78.682
524.76	79.468
524.97	79.636
525.17	81.958
525.38	79.097
525.58	81.685
525.79	80.309
526.00	82.999
526.20	84.194
526.41	83.581
526.61	82.983
526.82	84.618
527.03	86.425
527.23	83.353
527.44	81.354
527.64	79.957
527.85	80.865
528.06	80.910
528.26	82.632
528.47	79.712
528.68	79.311
528.88	77.740
529.09	77.859
529.29	81.034
529.50	83.585
529.70	80.669
529.91	79.048
530.12	77.906
530.32	78.281
530.53	77.623
530.73	81.769
530.94	80.175
531.15	82.335
531.35	85.451
531.56	82.589
531.76	80.493
531.97	80.782
532.17	78.470
532.38	78.592
532.59	77.352
532.79	79.491
533.00	79.627
533.20	79.442
533.41	79.631
533.61	77.899
533.82	81.465
534.03	81.823
534.23	82.897
534.44	86.999
534.64	88.516
534.85	88.666
535.05	89.649
535.26	88.857
535.46	86.196
535.67	84.173
535.88	84.152
536.08	83.390
536.29	82.549
536.49	80.971
536.70	80.846
536.90	81.431
537.11	82.816
537.31	86.092
537.52	87.357
537.72	87.077
537.93	87.000
538.13	89.213
538.34	91.937
538.55	89.383
538.75	90.620
538.96	89.253
539.16	87.124
539.37	87.020
539.57	86.796
539.78	88.160
539.98	88.553
540.19	90.432
540.39	91.362
540.60	93.548
540.80	95.709
541.01	93.271
541.21	92.779
541.42	92.471
541.62	91.306
541.83	90.861
542.03	87.625
542.24	87.095
542.44	83.338
542.65	82.843
542.85	82.684
543.06	81.863
543.26	83.561
543.47	84.570
543.67	84.967
543.88	86.432
544.08	86.132
544.29	83.023
544.49	83.980
544.70	83.956
544.90	87.668
545.11	90.379
545.31	92.951
545.52	91.228
545.72	89.028
545.93	85.189
546.13	85.073
546.34	84.220
546.54	84.435
546.75	87.419
546.95	91.308
547.15	94.307
547.36	92.965
547.56	92.605
547.77	91.089
547.97	91.567
548.18	89.183
548.38	88.309
548.59	85.444
548.79	87.059
549.00	88.751
549.20	87.968
549.41	88.836
549.61	88.287
549.81	83.799
550.02	80.986
550.22	79.039
550.43	78.474
550.63	81.097
550.84	78.985
551.04	78.674
551.25	79.232
551.45	80.013
551.65	79.015
551.86	80.652
552.06	80.701
552.27	82.315
552.47	82.403
552.68	84.571
552.88	85.990
553.08	86.184
553.29	86.740
553.49	86.846
553.70	88.075
553.90	86.973
554.11	87.403
554.31	86.929
554.51	88.288
554.72	86.742
554.92	84.220
555.13	85.575
555.33	81.904
555.53	82.349
555.74	81.336
555.94	77.519
556.15	78.078
556.35	75.752
556.56	77.476
556.76	75.941
556.96	77.304
557.17	76.070
557.37	73.988
557.58	72.070
557.78	72.309
557.98	70.790
558.19	71.191
558.39	69.127
558.59	65.070
558.80	60.930
559.00	58.451
559.21	56.097
559.41	52.925
559.61	49.946
559.82	47.800
560.02	45.165
560.23	41.024
560.43	38.166
560.63	36.254
560.84	35.039
561.04	34.026
561.24	32.949
561.45	31.087
561.65	29.053
561.85	27.449
562.06	23.975
562.26	22.024
562.47	19.332
562.67	17.317
562.87	15.338
563.08	13.245
563.28	12.465
563.48	10.474
563.69	9.364
563.89	8.329
564.09	7.674
564.30	7.310
564.50	6.223
564.70	5.299
564.91	4.921
565.11	4.225
565.31	3.708
565.52	3.416
565.72	3.242
565.92	2.553
566.13	2.266
566.33	2.385
566.53	2.202
566.74	2.227
566.94	1.698
567.14	1.710
567.35	1.589
567.55	1.329
567.75	1.687
567.96	1.503
568.16	1.414
568.36	1.358
568.57	0.990
568.77	1.364
568.97	1.319
569.18	0.961
569.38	0.653
569.58	0.777
569.79	1.049
569.99	0.778
570.19	0.735
570.39	0.960
570.60	1.053
570.80	0.374
571.00	0.705
571.21	0.521
571.41	0.500
571.61	0.370
571.82	0.465
572.02	0.509
572.22	1.075
572.42	0.901
572.63	0.761
572.83	0.782
573.03	0.865
573.24	0.796
573.44	0.541
573.64	1.117
573.84	0.632
574.05	0.413
574.25	0.672
574.45	0.704
574.66	0.613
574.86	0.795
575.06	0.423
575.26	0.541
575.47	0.553
575.67	0.133
575.87	0.483
576.07	0.976
576.28	1.174
576.48	0.745
576.68	1.256
576.88	1.006
577.09	0.923
577.29	0.919
577.49	1.236
577.69	1.157
577.90	0.955
578.10	0.787
578.30	0.876
578.50	1.047
578.71	1.125
578.91	1.131
579.11	0.980
579.31	1.380
579.52	0.998
579.72	1.399
579.92	1.326
580.12	1.562
580.33	1.262
580.53	1.512
580.73	1.334
580.93	1.239
581.13	1.252
581.34	1.092
581.54	1.259
581.74	1.082
581.94	0.900
582.15	1.452
582.35	1.559
582.55	1.451
582.75	1.446
582.95	1.477
583.16	1.505
583.36	1.619
583.56	1.343
583.76	1.623
583.96	1.599
584.17	1.445
584.37	1.336
584.57	1.752
584.77	1.594
584.97	1.377
585.18	1.247
585.38	1.912
585.58	1.279
585.78	1.280
585.98	1.672
586.19	1.404
586.39	1.632
586.59	1.642
586.79	1.533
586.99	2.064
587.20	1.607
587.40	2.250
587.60	1.515
587.80	1.771
588.00	1.892
588.20	1.874
588.41	1.818
588.61	1.765
588.81	1.844
589.01	1.612
589.21	1.670
589.41	1.439
589.62	1.610
589.82	1.611
590.02	1.735
590.22	2.119
590.42	2.468
590.62	2.378
590.83	2.699
591.03	2.849
591.23	3.633
591.43	3.608
591.63	4.317
591.83	4.877
592.03	5.086
592.24	4.871
592.44	5.299
592.64	6.265
592.84	6.818
593.04	7.652
593.24	8.133
593.44	8.908
593.65	10.120
593.85	11.255
594.05	11.459
594.25	12.690
594.45	12.843
594.65	13.491
594.85	14.426
595.06	14.137
595.26	14.058
595.46	14.991
595.66	15.419
595.86	16.259
596.06	17.733
596.26	19.050
596.46	20.408
596.66	22.258
596.87	23.386
597.07	24.217
597.27	24.777
597.47	25.295
597.67	26.182
597.87	26.689
598.07	26.904
598.27	27.814
598.47	28.552
598.67	29.264
598.88	29.437
599.08	29.982
599.28	30.094
599.48	30.664
599.68	31.009
599.88	31.887
600.08	32.995
600.28	33.614
600.48	34.285
600.68	33.890
600.88	34.587
601.09	35.328
601.29	35.984
601.49	37.047
601.69	36.407
601.89	37.396
602.09	37.940
602.29	38.679
602.49	39.060
602.69	39.414
602.89	38.479
603.09	38.026
603.29	37.144
603.49	36.840
603.69	35.528
603.90	35.975
604.10	35.834
604.30	37.182
604.50	37.509
604.70	38.726
604.90	38.953
605.10	40.582
605.30	41.288
605.50	43.332
605.70	43.727
605.90	43.722
606.10	44.418
606.30	43.924
606.50	44.264
606.70	43.549
606.90	43.986
607.10	43.733
607.30	43.685
607.50	44.644
607.70	44.553
607.90	44.852
608.10	43.938
608.30	44.530
608.50	43.255
608.70	42.049
608.90	41.536
609.11	40.504
609.31	40.342
609.51	40.749
609.71	40.961
609.91	41.320
610.11	41.675
610.31	44.017
610.51	46.555
610.71	48.913
610.91	50.720
611.11	52.031
611.31	51.623
611.51	51.602
611.71	51.053
611.91	50.857
612.11	51.643
612.31	51.345
612.51	52.587
612.71	53.169
612.91	53.588
613.11	54.616
613.31	55.370
613.51	57.727
613.71	62.069
613.91	64.776
614.11	66.337
614.31	67.961
614.50	68.191
614.70	70.258
614.90	70.201
615.10	70.113
615.30	69.095
615.50	68.493
615.70	68.224
615.90	67.501
616.10	69.818
616.30	69.202
616.50	70.507
616.70	73.370
616.90	73.925
617.10	76.248
617.30	74.756
617.50	73.417
617.70	73.964
617.90	72.840
618.10	72.826
618.30	72.487
618.50	71.271
618.70	72.940
618.90	73.148
619.10	73.818
619.30	74.818
619.49	75.332
619.69	75.441
619.89	73.973
620.09	71.888
620.29	70.881
620.49	70.731
620.69	72.737
620.89	73.633
621.09	74.056
621.29	73.249
621.49	71.262
621.69	73.179
621.89	72.755
622.09	72.194
622.29	73.081
622.48	73.858
622.68	74.294
622.88	73.010
623.08	71.908
623.28	69.129
623.48	66.991
623.68	66.628
623.88	67.227
624.08	68.570
624.28	69.876
624.48	71.512
624.67	72.592
624.87	73.676
625.07	75.639
625.27	75.878
625.47	73.832
625.67	74.382
625.87	75.618
626.07	75.993
626.27	76.495
626.47	75.806
626.66	73.926
626.86	73.284
627.06	73.099
627.26	73.703
627.46	76.236
627.66	78.987
627.86	80.307
628.06	78.605
628.25	78.492
628.45	77.238
628.65	77.545
628.85	78.805
629.05	77.316
629.25	77.719
629.45	78.768
629.65	79.836
629.84	79.497
630.04	77.911
630.24	77.082
630.44	77.853
630.64	76.777
630.84	76.818
631.04	77.038
631.23	77.220
631.43	75.444
631.63	75.708
631.83	77.089
632.03	78.656
632.23	79.088
632.42	79.332
632.62	80.712
632.82	81.664
633.02	83.526
633.22	83.225
633.42	82.748
633.62	81.466
633.81	79.990
634.01	79.269
634.21	78.506
634.41	77.261
634.61	76.205
634.80	76.279
635.00	76.484
635.20	77.357
635.40	77.732
635.60	78.308
635.80	79.248
635.99	79.954
636.19	82.253
636.39	84.452
636.59	85.793
