SpectraSuite Data File
++++++++++++++++++++++++++++++++++++
Date: Wed Jan 25 18:09:54 EET 2017
User: TheoProf
Dark Spectrum Present: Yes
Reference Spectrum Present: Yes
Number of Sampled Component Spectra: 1
Spectrometers: USB4C02475
Integration Time (usec): 64136 (USB4C02475)
Spectra Averaged: 1 (USB4C02475)
Boxcar Smoothing: 0 (USB4C02475)
Correct for Electrical Dark: No (USB4C02475)
Strobe/Lamp Enabled: No (USB4C02475)
Correct for Detector Non-linearity: No (USB4C02475)
Correct for Stray Light: No (USB4C02475)
Number of Pixels in Processed Spectrum: 3648
>>>>>Begin Processed Spectral Data<<<<<
344.91	175.000
345.13	175.000
345.35	175.000
345.57	300.000
345.79	125.000
346.00	189.474
346.22	1075.000
346.44	-37.931
346.66	-480.000
346.87	75.862
347.09	-160.000
347.31	108.696
347.53	54.902
347.74	-2.632
347.96	142.857
348.18	91.667
348.40	121.053
348.61	-46.154
348.83	84.848
349.05	22.951
349.27	-8.333
349.48	211.765
349.70	29.412
349.92	58.065
350.14	42.623
350.35	85.185
350.57	16.667
350.79	129.412
351.01	46.154
351.22	-60.000
351.44	61.538
351.66	220.000
351.87	88.889
352.09	337.500
352.31	-65.714
352.53	30.000
352.74	-34.483
352.96	92.000
353.18	-12.195
353.40	-1100.000
353.61	0.000
353.83	-90.909
354.05	240.000
354.26	113.636
354.48	116.667
354.70	115.789
354.92	-61.538
355.13	182.759
355.35	30.189
355.57	45.098
355.78	103.226
356.00	100.000
356.22	80.822
356.44	26.563
356.65	71.154
356.87	76.923
357.09	98.000
357.30	46.939
357.52	333.333
357.74	50.909
357.95	12.500
358.17	104.545
358.39	41.860
358.60	131.250
358.82	146.154
359.04	-540.000
359.26	15.686
359.47	27.778
359.69	93.069
359.91	-20.000
360.12	-90.000
360.34	132.432
360.56	-83.333
360.77	84.615
360.99	106.897
361.21	8.929
361.42	80.851
361.64	162.500
361.86	-83.333
362.07	104.878
362.29	34.091
362.51	48.810
362.72	253.846
362.94	92.308
363.16	70.455
363.37	81.250
363.59	236.000
363.81	262.500
364.02	24.490
364.24	-100.000
364.46	84.615
364.67	200.000
364.89	-75.758
365.11	0.000
365.32	78.571
365.54	-121.053
365.76	58.621
365.97	-42.424
366.19	190.909
366.41	71.429
366.62	-11.429
366.84	-171.429
367.05	-1.818
367.27	118.182
367.49	54.839
367.70	102.857
367.92	60.526
368.14	-2.381
368.35	5.882
368.57	72.152
368.79	24.528
369.00	140.816
369.22	140.000
369.43	65.625
369.65	82.500
369.87	122.857
370.08	-63.889
370.30	-40.000
370.51	-480.000
370.73	60.606
370.95	-169.231
371.16	94.444
371.38	75.000
371.60	166.667
371.81	105.263
372.03	131.884
372.24	-525.000
372.46	155.172
372.68	250.000
372.89	33.333
373.11	52.542
373.32	-29.630
373.54	21.053
373.76	100.000
373.97	94.595
374.19	-102.564
374.40	-6.897
374.62	3.125
374.84	50.000
375.05	79.630
375.27	54.000
375.48	76.471
375.70	72.414
375.92	123.077
376.13	53.333
376.35	49.206
376.56	-142.857
376.78	127.273
376.99	7.692
377.21	-16.279
377.43	146.154
377.64	38.961
377.86	39.286
378.07	40.000
378.29	-9.091
378.51	30.864
378.72	100.000
378.94	35.714
379.15	40.351
379.37	20.000
379.58	-31.250
379.80	104.167
380.01	78.947
380.23	57.778
380.45	-89.474
380.66	-23.188
380.88	100.000
381.09	6.250
381.31	37.500
381.52	4.348
381.74	67.368
381.95	-40.000
382.17	-22.727
382.39	50.000
382.60	23.810
382.82	4.000
383.03	31.250
383.25	0.000
383.46	-110.526
383.68	50.000
383.89	-10.476
384.11	72.881
384.32	51.163
384.54	39.394
384.76	71.739
384.97	35.294
385.19	54.167
385.40	-3.226
385.62	13.793
385.83	46.032
386.05	51.667
386.26	-37.037
386.48	-6.557
386.69	27.160
386.91	0.000
387.12	63.077
387.34	28.846
387.55	-177.778
387.77	30.137
387.98	35.294
388.20	48.684
388.41	-37.143
388.63	44.000
388.84	130.882
389.06	28.788
389.27	34.653
389.49	78.462
389.70	70.588
389.92	-25.000
390.13	68.367
390.35	39.706
390.56	84.314
390.78	19.318
390.99	26.761
391.21	38.235
391.42	45.679
391.64	7.500
391.85	65.278
392.07	-350.000
392.28	36.066
392.50	55.556
392.71	-8.065
392.93	31.034
393.14	18.868
393.36	12.264
393.57	-4.301
393.79	200.000
394.00	62.745
394.22	9.722
394.43	56.989
394.65	29.032
394.86	21.154
395.08	6.329
395.29	47.059
395.50	1.220
395.72	-38.710
395.93	28.571
396.15	40.323
396.36	55.172
396.58	13.913
396.79	35.135
397.01	82.812
397.22	34.328
397.44	36.134
397.65	28.333
397.87	78.378
398.08	35.897
398.29	13.235
398.51	18.667
398.72	43.939
398.94	36.842
399.15	20.792
399.37	39.552
399.58	35.106
399.80	36.275
400.01	51.190
400.22	13.889
400.44	44.444
400.65	5.147
400.87	18.966
401.08	-7.576
401.30	-8.333
401.51	16.129
401.72	31.613
401.94	19.828
402.15	-6.897
402.37	12.264
402.58	-15.278
402.80	30.137
403.01	-23.457
403.22	55.789
403.44	23.485
403.65	52.941
403.87	37.857
404.08	-0.641
404.30	22.308
404.51	51.695
404.72	43.262
404.94	10.687
405.15	0.676
405.37	22.835
405.58	-32.857
405.79	34.737
406.01	39.869
406.22	8.800
406.44	29.078
406.65	6.250
406.86	31.126
407.08	15.741
407.29	15.132
407.51	26.923
407.72	13.889
407.93	34.868
408.15	24.540
408.36	17.518
408.58	29.189
408.79	-2.817
409.00	18.710
409.22	10.383
409.43	2.128
409.64	0.781
409.86	19.136
410.07	-1.899
410.29	19.159
410.50	4.237
410.71	16.993
410.93	18.182
411.14	-2.454
411.35	19.608
411.57	-10.241
411.78	4.734
412.00	13.287
412.21	7.534
412.42	5.389
412.64	3.030
412.85	30.409
413.06	9.633
413.28	6.000
413.49	21.739
413.70	-6.780
413.92	20.690
414.13	-15.179
414.34	24.607
414.56	11.043
414.77	14.118
414.98	26.702
415.20	-4.624
415.41	12.778
415.63	6.140
415.84	31.373
416.05	23.478
416.27	17.727
416.48	17.623
416.69	12.613
416.91	3.865
417.12	6.250
417.33	2.532
417.55	-22.093
417.76	-0.575
417.97	-11.220
418.19	32.246
418.40	13.736
418.61	21.849
418.83	1.810
419.04	8.108
419.25	4.508
419.46	21.397
419.68	24.762
419.89	-5.348
420.10	-0.837
420.32	23.108
420.53	7.631
420.74	16.154
420.96	17.530
421.17	15.415
421.38	0.383
421.60	17.917
421.81	1.250
422.02	7.280
422.23	2.905
422.45	4.074
422.66	0.417
422.87	5.725
423.09	-3.084
423.30	7.870
423.51	5.166
423.73	12.121
423.94	16.609
424.15	19.305
424.36	4.688
424.58	19.031
424.79	6.601
425.00	3.169
425.22	14.000
425.43	13.768
425.64	6.169
425.85	-5.263
426.07	-1.262
426.28	3.767
426.49	2.214
426.71	4.971
426.92	12.426
427.13	-5.281
427.34	8.788
427.56	11.310
427.77	-1.953
427.98	-14.919
428.19	-1.931
428.41	0.000
428.62	8.904
428.83	8.357
429.04	-5.280
429.26	7.375
429.47	9.846
429.68	-4.923
429.89	11.607
430.11	4.948
430.32	8.707
430.53	8.810
430.74	5.590
430.96	15.707
431.17	10.541
431.38	-2.581
431.59	-7.645
431.81	-4.301
432.02	-2.809
432.23	10.682
432.44	2.308
432.66	8.939
432.87	-9.422
433.08	-3.472
433.29	3.807
433.51	0.490
433.72	10.070
433.93	7.226
434.14	12.911
434.35	-2.906
434.57	7.338
434.78	7.952
434.99	12.284
435.20	10.680
435.42	17.418
435.63	18.819
435.84	7.877
436.05	9.171
436.26	3.668
436.48	11.963
436.69	11.489
436.90	6.526
437.11	7.076
437.32	5.219
437.54	4.990
437.75	12.326
437.96	3.593
438.17	-1.193
438.38	12.450
438.60	10.634
438.81	7.229
439.02	-3.360
439.23	3.333
439.44	6.641
439.66	10.000
439.87	4.070
440.08	17.975
440.29	5.426
440.50	6.796
440.72	4.019
440.93	9.447
441.14	-1.912
441.35	7.946
441.56	1.426
441.77	6.897
441.99	8.789
442.20	7.885
442.41	2.504
442.62	10.690
442.83	3.547
443.04	6.874
443.26	15.152
443.47	8.872
443.68	7.576
443.89	0.737
444.10	4.839
444.31	5.626
444.53	13.856
444.74	16.772
444.95	6.872
445.16	23.490
445.37	13.269
445.58	26.613
445.80	25.363
446.01	33.926
446.22	38.462
446.43	40.951
446.64	37.060
446.85	44.580
447.06	43.812
447.28	48.099
447.49	53.302
447.70	53.211
447.91	53.544
448.12	57.067
448.33	49.103
448.54	61.669
448.76	68.563
448.97	68.547
449.18	80.129
449.39	74.119
449.60	81.882
449.81	84.970
450.02	85.049
450.23	85.807
450.45	87.368
450.66	87.170
450.87	83.055
451.08	93.069
451.29	90.403
451.50	88.669
451.71	88.235
451.92	82.966
452.13	87.935
452.35	86.761
452.56	86.767
452.77	92.774
452.98	100.000
453.19	86.718
453.40	93.176
453.61	95.570
453.82	98.964
454.03	93.374
454.25	102.323
454.46	94.660
454.67	94.019
454.88	83.299
455.09	91.124
455.30	91.009
455.51	94.299
455.72	96.235
455.93	103.896
456.14	94.761
456.35	86.226
456.56	93.069
456.78	90.618
456.99	92.786
457.20	90.365
457.41	94.035
457.62	86.125
457.83	84.945
458.04	88.413
458.25	88.083
458.46	87.714
458.67	86.952
458.88	96.060
459.09	96.150
459.30	100.333
459.51	99.046
459.73	96.915
459.94	89.961
460.15	93.558
460.36	94.691
460.57	89.109
460.78	90.893
460.99	91.092
461.20	89.496
461.41	87.532
461.62	89.152
461.83	90.451
462.04	93.659
462.25	93.993
462.46	96.273
462.67	91.482
462.88	95.061
463.09	92.883
463.30	86.387
463.51	100.777
463.72	99.063
463.93	97.111
464.15	94.965
464.36	98.504
464.57	92.691
464.78	96.623
464.99	83.078
465.20	91.359
465.41	97.283
465.62	88.889
465.83	96.209
466.04	99.213
466.25	90.627
466.46	97.293
466.67	95.562
466.88	91.168
467.09	91.912
467.30	96.662
467.51	94.389
467.72	100.139
467.93	102.283
468.14	93.269
468.35	97.018
468.56	93.312
468.77	96.426
468.98	97.311
469.19	93.186
469.40	96.301
469.61	89.085
469.82	95.332
470.03	92.454
470.24	95.489
470.45	94.610
470.66	92.714
470.87	97.520
471.08	97.110
471.29	99.882
471.50	93.017
471.71	97.102
471.92	94.072
472.13	90.738
472.34	96.920
472.55	92.006
472.76	99.549
472.97	91.210
473.18	92.946
473.39	94.303
473.60	93.876
473.81	90.664
474.01	93.778
474.22	92.772
474.43	95.215
474.64	94.301
474.85	92.664
475.06	93.028
475.27	96.951
475.48	94.074
475.69	97.430
475.90	95.620
476.11	98.383
476.32	96.063
476.53	102.067
476.74	98.833
476.95	95.966
477.16	93.635
477.37	99.601
477.58	94.859
477.79	97.428
478.00	95.923
478.21	95.029
478.41	95.593
478.62	96.616
478.83	95.915
479.04	95.255
479.25	96.324
479.46	97.439
479.67	98.351
479.88	96.294
480.09	97.411
480.30	100.635
480.51	99.853
480.72	99.137
480.93	94.397
481.14	91.494
481.34	93.510
481.55	95.836
481.76	96.554
481.97	97.482
482.18	94.042
482.39	93.188
482.60	94.052
482.81	100.910
483.02	102.205
483.23	97.171
483.44	98.384
483.65	98.186
483.85	97.622
484.06	94.819
484.27	97.643
484.48	99.656
484.69	102.811
484.90	101.791
485.11	101.941
485.32	100.948
485.53	100.454
485.73	98.066
485.94	98.275
486.15	95.208
486.36	95.181
486.57	94.402
486.78	93.916
486.99	96.835
487.20	93.989
487.41	92.890
487.61	92.294
487.82	96.217
488.03	92.706
488.24	92.627
488.45	94.091
488.66	94.195
488.87	94.398
489.08	97.575
489.28	100.518
489.49	96.325
489.70	94.743
489.91	95.979
490.12	91.130
490.33	93.881
490.54	94.563
490.74	94.998
490.95	95.879
491.16	96.026
491.37	94.153
491.58	90.563
491.79	93.093
492.00	91.639
492.20	94.056
492.41	92.817
492.62	92.964
492.83	94.782
493.04	96.449
493.25	94.082
493.45	94.042
493.66	90.840
493.87	85.779
494.08	81.371
494.29	79.214
494.50	76.554
494.70	70.122
494.91	69.716
495.12	64.425
495.33	59.057
495.54	49.226
495.75	42.104
495.95	35.354
496.16	29.225
496.37	24.369
496.58	19.662
496.79	16.896
496.99	13.640
497.20	10.327
497.41	7.831
497.62	5.881
497.83	4.815
498.04	2.377
498.24	2.351
498.45	3.069
498.66	2.172
498.87	2.286
499.08	1.900
499.28	2.285
499.49	2.091
499.70	1.331
499.91	1.078
500.12	1.318
500.32	0.489
500.53	1.210
500.74	1.375
500.95	1.856
501.15	1.747
501.36	1.624
501.57	2.014
501.78	1.401
501.99	1.042
502.19	1.280
502.40	0.449
502.61	1.917
502.82	0.452
503.02	0.791
503.23	0.779
503.44	1.012
503.65	1.451
503.86	1.386
504.06	1.595
504.27	0.835
504.48	0.975
504.69	1.118
504.89	1.325
505.10	1.937
505.31	1.181
505.52	1.931
505.72	1.680
505.93	2.085
506.14	1.519
506.35	1.626
506.55	0.891
506.76	0.932
506.97	1.837
507.18	0.669
507.38	1.626
507.59	0.732
507.80	0.069
508.01	1.696
508.21	0.634
508.42	0.388
508.63	0.398
508.84	1.604
509.04	-0.017
509.25	0.222
509.46	1.812
509.67	0.670
509.87	1.083
510.08	1.417
510.29	0.349
510.49	0.724
510.70	0.638
510.91	0.902
511.12	0.500
511.32	0.953
511.53	0.792
511.74	1.407
511.94	1.331
512.15	0.349
512.36	1.207
512.57	1.141
512.77	0.724
512.98	0.909
513.19	0.439
513.39	0.686
513.60	1.212
513.81	-0.121
514.01	0.498
514.22	1.566
514.43	0.891
514.64	1.151
514.84	0.698
515.05	0.397
515.26	1.356
515.46	0.753
515.67	0.841
515.88	1.018
516.08	1.017
516.29	1.262
516.50	1.331
516.70	0.660
516.91	0.991
517.12	0.504
517.32	1.511
517.53	1.392
517.74	0.425
517.95	0.743
518.15	1.045
518.36	0.896
518.57	0.430
518.77	0.567
518.98	0.748
519.19	0.756
519.39	0.670
519.60	0.790
519.80	1.410
520.01	0.709
520.22	0.582
520.42	0.791
520.63	0.637
520.84	0.825
521.04	0.720
521.25	0.198
521.46	0.593
521.66	1.047
521.87	0.426
522.08	1.021
522.28	0.741
522.49	0.890
522.70	0.459
522.90	0.505
523.11	0.700
523.31	0.962
523.52	0.609
523.73	0.819
523.93	1.341
524.14	0.262
524.35	0.963
524.55	1.077
524.76	0.482
524.97	1.278
525.17	0.608
525.38	0.989
525.58	0.772
525.79	0.824
526.00	1.101
526.20	0.811
526.41	1.027
526.61	0.284
526.82	0.662
527.03	0.691
527.23	1.351
527.44	0.742
527.64	0.501
527.85	0.767
528.06	0.444
528.26	0.882
528.47	1.023
528.68	0.954
528.88	0.751
529.09	1.087
529.29	1.044
529.50	0.608
529.70	1.115
529.91	0.409
530.12	1.071
530.32	0.895
530.53	0.971
530.73	0.711
530.94	0.427
531.15	1.336
531.35	1.132
531.56	0.303
531.76	1.272
531.97	1.311
532.17	1.238
532.38	0.943
532.59	1.325
532.79	0.908
533.00	1.107
533.20	1.206
533.41	0.695
533.61	0.890
533.82	0.945
534.03	1.045
534.23	0.967
534.44	1.198
534.64	0.845
534.85	1.454
535.05	1.095
535.26	1.008
535.46	1.460
535.67	1.003
535.88	2.038
536.08	1.404
536.29	1.269
536.49	1.368
536.70	1.177
536.90	0.832
537.11	1.218
537.31	1.224
537.52	1.496
537.72	1.854
537.93	1.017
538.13	1.906
538.34	1.737
538.55	1.494
538.75	1.887
538.96	1.793
539.16	1.627
539.37	1.641
539.57	1.419
539.78	2.025
539.98	1.753
540.19	2.012
540.39	2.314
540.60	2.395
540.80	2.346
541.01	2.417
541.21	2.502
541.42	2.557
541.62	2.484
541.83	2.791
542.03	2.846
542.24	2.488
542.44	3.087
542.65	2.902
542.85	3.039
543.06	3.187
543.26	3.488
543.47	3.672
543.67	3.981
543.88	4.830
544.08	5.337
544.29	6.314
544.49	7.656
544.70	8.612
544.90	10.493
545.11	12.476
545.31	14.644
545.52	16.961
545.72	19.604
545.93	22.225
546.13	23.890
546.34	26.303
546.54	30.348
546.75	32.213
546.95	37.198
547.15	40.647
547.36	41.658
547.56	43.560
547.77	47.155
547.97	49.628
548.18	54.223
548.38	59.236
548.59	61.859
548.79	65.459
549.00	69.228
549.20	72.429
549.41	76.847
549.61	77.531
549.81	80.887
550.02	82.614
550.22	86.445
550.43	86.113
550.63	90.462
550.84	91.520
551.04	92.982
551.25	93.280
551.45	95.150
551.65	95.396
551.86	94.437
552.06	96.868
552.27	97.884
552.47	95.689
552.68	96.665
552.88	97.398
553.08	96.177
553.29	96.632
553.49	98.652
553.70	100.018
553.90	102.490
554.11	103.105
554.31	103.358
554.51	103.666
554.72	103.659
554.92	104.959
555.13	104.902
555.33	103.801
555.53	106.625
555.74	106.263
555.94	104.596
556.15	103.818
556.35	100.595
556.56	101.507
556.76	99.740
556.96	100.765
557.17	98.718
557.37	98.328
557.58	98.738
557.78	99.796
557.98	99.048
558.19	97.892
558.39	99.207
558.59	96.138
558.80	96.089
559.00	97.482
559.21	98.639
559.41	96.928
559.61	96.907
559.82	96.141
560.02	97.051
560.23	96.703
560.43	97.750
560.63	96.268
560.84	95.438
561.04	96.656
561.24	99.424
561.45	101.155
561.65	101.100
561.85	100.474
562.06	99.880
562.26	100.834
562.47	100.439
562.67	100.363
562.87	100.726
563.08	98.607
563.28	99.711
563.48	99.160
563.69	96.444
563.89	96.377
564.09	97.790
564.30	96.226
564.50	95.976
564.70	96.686
564.91	96.265
565.11	95.618
565.31	94.013
565.52	93.409
565.72	95.596
565.92	94.847
566.13	93.859
566.33	96.850
566.53	94.891
566.74	96.069
566.94	96.831
567.14	98.389
567.35	97.172
567.55	96.070
567.75	96.784
567.96	98.889
568.16	99.017
568.36	98.529
568.57	97.464
568.77	96.242
568.97	96.573
569.18	95.689
569.38	96.141
569.58	96.091
569.79	95.094
569.99	93.541
570.19	95.184
570.39	98.903
570.60	97.492
570.80	99.985
571.00	100.540
571.21	100.998
571.41	100.083
571.61	100.632
571.82	98.116
572.02	99.830
572.22	101.892
572.42	102.809
572.63	105.938
572.83	106.577
573.03	103.681
573.24	103.722
573.44	101.549
573.64	99.365
573.84	98.366
574.05	97.643
574.25	95.832
574.45	94.638
574.66	95.840
574.86	95.454
575.06	99.230
575.26	100.098
575.47	101.256
575.67	100.637
575.87	100.892
576.07	100.454
576.28	99.035
576.48	96.204
576.68	98.744
576.88	99.820
577.09	101.558
577.29	103.054
577.49	102.052
577.69	101.769
577.90	100.318
578.10	100.375
578.30	97.545
578.50	97.593
578.71	99.563
578.91	101.975
579.11	100.675
579.31	100.795
579.52	101.797
579.72	102.928
579.92	102.093
580.12	103.825
580.33	102.757
580.53	104.520
580.73	102.214
580.93	101.040
581.13	99.599
581.34	96.140
581.54	95.876
581.74	96.858
581.94	96.180
582.15	97.249
582.35	96.640
582.55	95.062
582.75	96.272
582.95	99.762
583.16	99.349
583.36	99.701
583.56	99.449
583.76	99.257
583.96	100.415
584.17	99.959
584.37	100.661
584.57	100.428
584.77	100.474
584.97	99.383
585.18	96.318
585.38	96.412
585.58	95.058
585.78	94.826
585.98	96.731
586.19	96.128
586.39	97.676
586.59	100.482
586.79	99.543
586.99	98.409
587.20	101.371
587.40	100.764
587.60	101.247
587.80	101.112
588.00	101.020
588.20	102.320
588.41	105.082
588.61	106.985
588.81	105.707
589.01	103.031
589.21	100.429
589.41	99.412
589.62	96.444
589.82	93.713
590.02	92.660
590.22	93.010
590.42	92.342
590.62	93.576
590.83	94.589
591.03	96.670
591.23	100.261
591.43	100.902
591.63	102.196
591.83	102.027
592.03	100.249
592.24	99.107
592.44	97.396
592.64	94.688
592.84	93.557
593.04	93.084
593.24	94.537
593.44	97.356
593.65	98.522
593.85	100.040
594.05	101.049
594.25	103.435
594.45	101.848
594.65	98.321
594.85	96.980
595.06	94.686
595.26	94.419
595.46	95.805
595.66	95.722
595.86	96.981
596.06	99.066
596.26	98.362
596.46	97.614
596.66	96.598
596.87	97.147
597.07	97.913
597.27	98.917
597.47	98.361
597.67	99.524
597.87	97.966
598.07	99.331
598.27	99.797
598.47	101.131
598.67	101.282
598.88	100.405
599.08	99.334
599.28	99.002
599.48	98.017
599.68	99.571
599.88	98.716
600.08	99.395
600.28	98.969
600.48	98.298
600.68	96.328
600.88	94.794
601.09	92.527
601.29	91.361
601.49	89.555
601.69	85.593
601.89	83.976
602.09	78.886
602.29	76.503
602.49	73.656
602.69	69.592
602.89	65.692
603.09	61.227
603.29	56.969
603.49	52.824
603.69	47.453
603.90	42.144
604.10	38.165
604.30	33.438
604.50	29.156
604.70	25.296
604.90	20.471
605.10	17.039
605.30	14.259
605.50	11.761
605.70	9.652
605.90	8.660
606.10	6.708
606.30	5.868
606.50	4.349
606.70	3.666
606.90	3.022
607.10	2.267
607.30	2.173
607.50	1.667
607.70	1.343
607.90	1.379
608.10	1.632
608.30	1.521
608.50	1.359
608.70	1.046
608.90	1.113
609.11	0.937
609.31	1.175
609.51	0.921
609.71	1.134
609.91	0.962
610.11	0.947
610.31	1.095
610.51	1.307
610.71	1.287
610.91	1.277
611.11	1.584
611.31	1.568
611.51	1.730
611.71	1.679
611.91	1.358
612.11	1.566
612.31	1.427
612.51	1.368
612.71	1.281
612.91	1.341
613.11	1.356
613.31	0.994
613.51	1.307
613.71	1.212
613.91	1.113
614.11	1.045
614.31	0.916
614.50	1.072
614.70	0.841
614.90	0.817
615.10	0.887
615.30	0.901
615.50	0.896
615.70	0.839
615.90	0.831
616.10	0.863
616.30	0.793
616.50	0.614
616.70	0.773
616.90	0.397
617.10	0.820
617.30	0.574
617.50	0.628
617.70	0.604
617.90	0.370
618.10	0.742
618.30	0.642
618.50	0.749
618.70	0.780
618.90	0.663
619.10	0.724
619.30	0.733
619.49	0.333
619.69	0.695
619.89	0.648
620.09	0.504
620.29	0.861
620.49	0.589
620.69	0.518
620.89	0.568
621.09	0.475
621.29	0.765
621.49	0.544
621.69	0.751
621.89	0.592
622.09	0.552
622.29	0.839
622.48	0.761
622.68	0.439
622.88	0.517
623.08	0.771
623.28	0.436
623.48	0.544
623.68	0.639
623.88	0.523
624.08	0.663
624.28	0.647
624.48	0.521
624.67	0.553
624.87	0.643
625.07	0.847
625.27	0.613
625.47	0.582
625.67	0.427
625.87	0.749
626.07	0.802
626.27	0.519
626.47	0.823
626.66	0.881
626.86	0.557
627.06	0.621
627.26	0.513
627.46	0.552
627.66	0.884
627.86	0.610
628.06	0.380
628.25	0.746
628.45	0.566
628.65	0.520
628.85	0.644
629.05	0.577
629.25	0.656
629.45	0.512
629.65	0.646
629.84	0.627
630.04	0.661
630.24	0.790
630.44	0.735
630.64	0.670
630.84	0.786
631.04	0.981
631.23	0.763
631.43	0.847
631.63	0.832
631.83	0.630
632.03	0.723
632.23	0.640
632.42	0.717
632.62	0.787
632.82	0.895
633.02	0.883
633.22	0.668
633.42	0.908
633.62	0.769
633.81	0.702
634.01	0.695
634.21	0.859
634.41	0.894
634.61	0.742
634.80	0.875
635.00	0.880
635.20	0.730
635.40	0.960
635.60	0.810
635.80	0.912
635.99	1.075
636.19	1.153
636.39	0.847
636.59	0.989
636.79	1.099
636.98	0.982
