SpectraSuite Data File
++++++++++++++++++++++++++++++++++++
Date: Mon Mar 27 19:51:47 EEST 2017
User: TheoProf
Dark Spectrum Present: Yes
Reference Spectrum Present: Yes
Number of Sampled Component Spectra: 1
Spectrometers: USB4C02475
Integration Time (usec): 426341 (USB4C02475)
Spectra Averaged: 1 (USB4C02475)
Boxcar Smoothing: 0 (USB4C02475)
Correct for Electrical Dark: No (USB4C02475)
Strobe/Lamp Enabled: No (USB4C02475)
Correct for Detector Non-linearity: No (USB4C02475)
Correct for Stray Light: No (USB4C02475)
Number of Pixels in Processed Spectrum: 3648
>>>>>Begin Processed Spectral Data<<<<<
344.91	82.353
345.13	82.353
345.35	82.353
345.57	0.000
345.79	25.926
346.00	-400.000
346.22	-81.579
346.44	266.667
346.66	558.333
346.87	203.333
347.09	0.000
347.31	-469.231
347.53	-71.429
347.74	21.875
347.96	4.167
348.18	200.000
348.40	800.000
348.61	-52.000
348.83	-93.750
349.05	-200.000
349.27	52.857
349.48	-125.000
349.70	485.714
349.92	960.000
350.14	-257.143
350.35	1575.000
350.57	45.455
350.79	104.762
351.01	93.878
351.22	105.405
351.44	-1014.286
351.66	66.667
351.87	89.189
352.09	88.060
352.31	117.568
352.53	-20.000
352.74	89.855
352.96	147.368
353.18	14.583
353.40	119.149
353.61	286.957
353.83	69.014
354.05	425.000
354.26	-1200.000
354.48	900.000
354.70	320.000
354.92	71.233
355.13	185.714
355.35	-727.273
355.57	-8.333
355.78	126.316
356.00	608.333
356.22	116.129
356.44	1125.000
356.65	1120.000
356.87	220.000
357.09	510.000
357.30	221.739
357.52	64.286
357.74	20.000
357.95	143.750
358.17	-600.000
358.39	112.500
358.60	1175.000
358.82	50.000
359.04	156.897
359.26	102.128
359.47	240.741
359.69	75.000
359.91	325.806
360.12	255.263
360.34	-200.000
360.56	142.857
360.77	-1000.000
360.99	-945.455
361.21	117.778
361.42	-1400.000
361.64	-100.000
361.86	153.571
362.07	500.000
362.29	70.000
362.51	140.000
362.72	180.000
362.94	98.214
363.16	310.000
363.37	275.000
363.59	192.857
363.81	148.649
364.02	81.250
364.24	7600.000
364.46	185.185
364.67	194.444
364.89	131.818
365.11	0.000
365.32	83.333
365.54	106.250
365.76	-104.762
365.97	300.000
366.19	172.222
366.41	26.923
366.62	80.000
366.84	67.500
367.05	284.848
367.27	1533.333
367.49	35.714
367.70	230.435
367.92	117.073
368.14	49.231
368.35	223.077
368.57	63.855
368.79	73.626
369.00	8.772
369.22	68.000
369.43	89.011
369.65	700.000
369.87	90.909
370.08	41.667
370.30	113.043
370.51	253.846
370.73	70.130
370.95	436.364
371.16	-150.000
371.38	180.000
371.60	306.250
371.81	284.615
372.03	1450.000
372.24	145.714
372.46	37.037
372.68	115.493
372.89	102.667
373.11	122.772
373.32	2.564
373.54	400.000
373.76	-4.545
373.97	4.167
374.19	108.861
374.40	355.882
374.62	112.121
374.84	-0.000
375.05	164.286
375.27	352.941
375.48	200.000
375.70	235.484
375.92	56.897
376.13	-633.333
376.35	60.714
376.56	104.082
376.78	38.000
376.99	203.030
377.21	23.256
377.43	135.484
377.64	110.000
377.86	10.000
378.07	93.651
378.29	73.810
378.51	63.529
378.72	166.667
378.94	48.718
379.15	7.368
379.37	51.786
379.58	7.692
379.80	167.213
380.01	100.000
380.23	25.000
380.45	66.667
380.66	-293.333
380.88	82.353
381.09	51.064
381.31	85.897
381.52	54.615
381.74	64.474
381.95	54.762
382.17	87.500
382.39	50.000
382.60	-1.429
382.82	50.000
383.03	116.456
383.25	-39.474
383.46	138.182
383.68	48.485
383.89	64.865
384.11	79.545
384.32	-9.677
384.54	-76.190
384.76	110.753
384.97	180.645
385.19	5.714
385.40	53.425
385.62	78.571
385.83	8.235
386.05	-6.897
386.26	44.628
386.48	19.780
386.69	37.333
386.91	37.234
387.12	94.444
387.34	14.414
387.55	-22.222
387.77	34.884
387.98	35.461
388.20	27.103
388.41	-1.190
388.63	-0.758
388.84	20.225
389.06	48.571
389.27	25.373
389.49	25.490
389.70	35.115
389.92	42.657
390.13	-7.895
390.35	12.214
390.56	46.094
390.78	83.007
390.99	16.495
391.21	-73.529
391.42	26.316
391.64	74.126
391.85	28.302
392.07	9.402
392.28	-8.228
392.50	38.542
392.71	1.575
392.93	43.182
393.14	23.256
393.36	9.016
393.57	25.000
393.79	39.024
394.00	18.261
394.22	32.759
394.43	44.211
394.65	42.778
394.86	44.186
395.08	34.426
395.29	14.103
395.50	25.258
395.72	20.859
395.93	48.387
396.15	40.741
396.36	3.922
396.58	-13.014
396.79	19.018
397.01	11.905
397.22	25.258
397.44	18.357
397.65	-1.923
397.87	3.825
398.08	33.987
398.29	17.886
398.51	16.915
398.72	17.857
398.94	12.549
399.15	0.518
399.37	8.671
399.58	19.214
399.80	-1.852
400.01	3.158
400.22	7.143
400.44	27.511
400.65	13.889
400.87	26.840
401.08	25.758
401.30	9.259
401.51	-7.389
401.72	27.426
401.94	36.250
402.15	15.753
402.37	-5.000
402.58	12.500
402.80	0.794
403.01	-26.540
403.22	18.321
403.44	20.423
403.65	20.000
403.87	-11.417
404.08	17.966
404.30	-1.674
404.51	29.268
404.72	16.511
404.94	11.207
405.15	11.417
405.37	18.182
405.58	0.955
405.79	7.071
406.01	9.375
406.22	-5.678
406.44	-1.038
406.65	11.233
406.86	-7.143
407.08	15.161
407.29	7.527
407.51	-10.335
407.72	5.825
407.93	14.481
408.15	8.730
408.36	8.226
408.58	5.238
408.79	-9.552
409.00	2.895
409.22	8.018
409.43	-3.359
409.64	6.905
409.86	1.675
410.07	8.791
410.29	12.639
410.50	2.489
410.71	0.473
410.93	3.053
411.14	12.500
411.35	4.936
411.57	4.462
411.78	16.097
412.00	4.924
412.21	-4.980
412.42	2.158
412.64	3.906
412.85	1.416
413.06	-3.369
413.28	6.049
413.49	5.421
413.70	2.523
413.92	6.942
414.13	-5.128
414.34	7.273
414.56	2.946
414.77	-0.796
414.98	2.927
415.20	5.057
415.41	-1.118
415.63	-1.838
415.84	11.614
416.05	-9.446
416.27	2.157
416.48	2.135
416.69	0.591
416.91	6.795
417.12	1.550
417.33	6.505
417.55	-0.267
417.76	2.029
417.97	1.477
418.19	3.577
418.40	-2.361
418.61	5.628
418.83	4.192
419.04	8.272
419.25	-3.239
419.46	2.577
419.68	5.529
419.89	1.814
420.10	1.009
420.32	4.827
420.53	4.422
420.74	0.604
420.96	1.681
421.17	3.281
421.38	4.054
421.60	-1.378
421.81	-1.722
422.02	4.687
422.23	5.453
422.45	4.661
422.66	4.067
422.87	4.205
423.09	5.579
423.30	4.463
423.51	0.908
423.73	1.283
423.94	3.337
424.15	-0.519
424.36	2.546
424.58	4.932
424.79	2.069
425.00	2.927
425.22	-5.076
425.43	3.025
425.64	1.690
425.85	-1.410
426.07	6.130
426.28	4.920
426.49	-1.530
426.71	3.933
426.92	-0.833
427.13	1.560
427.34	4.518
427.56	2.842
427.77	3.097
427.98	-1.709
428.19	7.720
428.41	1.247
428.62	7.549
428.83	5.695
429.04	4.116
429.26	8.599
429.47	4.815
429.68	7.821
429.89	2.997
430.11	4.086
430.32	4.699
430.53	2.776
430.74	3.325
430.96	8.197
431.17	6.074
431.38	1.282
431.59	0.523
431.81	6.408
432.02	2.131
432.23	2.406
432.44	1.442
432.66	3.186
432.87	5.407
433.08	4.148
433.29	3.360
433.51	1.757
433.72	7.968
433.93	4.937
434.14	13.032
434.35	22.336
434.57	31.395
434.78	40.386
434.99	45.514
435.20	57.651
435.42	60.516
435.63	69.551
435.84	72.503
436.05	81.569
436.26	78.038
436.48	83.395
436.69	82.567
436.90	84.184
437.11	79.903
437.32	89.695
437.54	84.244
437.75	82.009
437.96	87.226
438.17	83.047
438.38	88.983
438.60	84.602
438.81	88.771
439.02	88.941
439.23	87.521
439.44	92.048
439.66	88.800
439.87	96.043
440.08	84.392
440.29	87.031
440.50	89.296
440.72	87.046
440.93	89.232
441.14	83.453
441.35	85.691
441.56	81.267
441.77	86.317
441.99	80.115
442.20	86.968
442.41	88.926
442.62	87.209
442.83	86.752
443.04	87.869
443.26	89.968
443.47	91.480
443.68	92.439
443.89	88.830
444.10	89.766
444.31	91.508
444.53	83.824
444.74	88.336
444.95	92.227
445.16	90.254
445.37	90.062
445.58	92.471
445.80	93.490
446.01	92.505
446.22	84.710
446.43	89.945
446.64	88.114
446.85	91.017
447.06	87.731
447.28	90.729
447.49	92.184
447.70	90.891
447.91	92.832
448.12	95.867
448.33	93.884
448.54	89.581
448.76	91.093
448.97	90.662
449.18	88.605
449.39	90.891
449.60	87.152
449.81	88.600
450.02	92.810
450.23	90.280
450.45	85.165
450.66	85.412
450.87	90.645
451.08	86.586
451.29	91.702
451.50	91.813
451.71	92.704
451.92	89.014
452.13	90.531
452.35	88.652
452.56	93.887
452.77	85.683
452.98	90.651
453.19	91.376
453.40	88.865
453.61	96.029
453.82	86.943
454.03	87.042
454.25	89.646
454.46	91.619
454.67	91.018
454.88	90.732
455.09	92.547
455.30	91.361
455.51	89.138
455.72	91.790
455.93	89.430
456.14	95.336
456.35	91.277
456.56	95.353
456.78	86.902
456.99	88.383
457.20	89.967
457.41	86.483
457.62	86.017
457.83	91.386
458.04	89.876
458.25	89.218
458.46	87.168
458.67	92.128
458.88	87.945
459.09	88.447
459.30	87.256
459.51	93.326
459.73	93.140
459.94	89.580
460.15	88.267
460.36	92.126
460.57	88.516
460.78	88.982
460.99	89.594
461.20	86.763
461.41	93.526
461.62	88.806
461.83	90.365
462.04	89.165
462.25	90.988
462.46	90.212
462.67	87.625
462.88	90.013
463.09	89.948
463.30	89.757
463.51	89.071
463.72	87.713
463.93	84.350
464.15	85.018
464.36	86.422
464.57	85.334
464.78	88.210
464.99	81.304
465.20	86.574
465.41	85.628
465.62	87.365
465.83	84.879
466.04	84.152
466.25	83.485
466.46	81.490
466.67	85.138
466.88	80.944
467.09	74.785
467.30	69.512
467.51	65.157
467.72	54.645
467.93	47.477
468.14	38.004
468.35	31.389
468.56	24.363
468.77	18.781
468.98	15.627
469.19	11.566
469.40	6.968
469.61	5.150
469.82	3.478
470.03	3.386
470.24	2.501
470.45	3.170
470.66	1.979
470.87	1.471
471.08	1.827
471.29	0.941
471.50	3.301
471.71	0.281
471.92	1.355
472.13	0.840
472.34	2.103
472.55	2.272
472.76	1.821
472.97	2.130
473.18	1.117
473.39	2.432
473.60	0.765
473.81	1.392
474.01	1.215
474.22	-0.758
474.43	1.528
474.64	1.742
474.85	1.270
475.06	1.044
475.27	-0.122
475.48	1.125
475.69	0.957
475.90	1.632
476.11	0.961
476.32	2.303
476.53	0.713
476.74	0.855
476.95	1.755
477.16	1.577
477.37	-0.278
477.58	1.772
477.79	0.904
478.00	0.416
478.21	1.313
478.41	1.256
478.62	0.159
478.83	2.000
479.04	1.146
479.25	1.161
479.46	0.980
479.67	0.707
479.88	0.337
480.09	1.810
480.30	0.381
480.51	1.303
480.72	1.802
480.93	0.211
481.14	1.310
481.34	0.987
481.55	1.694
481.76	0.700
481.97	1.640
482.18	1.612
482.39	1.089
482.60	0.426
482.81	0.721
483.02	0.528
483.23	0.725
483.44	0.466
483.65	0.948
483.85	1.319
484.06	0.855
484.27	0.928
484.48	1.091
484.69	0.980
484.90	-0.152
485.11	0.548
485.32	0.514
485.53	0.759
485.73	0.422
485.94	1.397
486.15	1.468
486.36	0.991
486.57	0.836
486.78	1.248
486.99	1.288
487.20	1.042
487.41	1.249
487.61	1.339
487.82	0.405
488.03	1.020
488.24	1.014
488.45	0.305
488.66	0.657
488.87	1.436
489.08	0.805
489.28	1.640
489.49	0.740
489.70	0.447
489.91	0.815
490.12	0.983
490.33	1.441
490.54	0.651
490.74	1.296
490.95	0.620
491.16	0.845
491.37	0.351
491.58	0.556
491.79	0.584
492.00	0.819
492.20	0.961
492.41	0.714
492.62	0.715
492.83	0.818
493.04	0.748
493.25	1.561
493.45	1.213
493.66	1.012
493.87	0.738
494.08	0.512
494.29	1.219
494.50	0.325
494.70	0.692
494.91	1.278
495.12	0.927
495.33	0.745
495.54	1.082
495.75	0.622
495.95	0.493
496.16	0.677
496.37	0.603
496.58	1.226
496.79	0.818
496.99	1.149
497.20	0.877
497.41	1.512
497.62	0.423
497.83	0.315
498.04	0.222
498.24	0.528
498.45	0.778
498.66	0.469
498.87	1.336
499.08	1.611
499.28	0.358
499.49	0.842
499.70	0.543
499.91	0.595
500.12	0.680
500.32	0.532
500.53	0.090
500.74	1.298
500.95	0.897
501.15	1.007
501.36	0.952
501.57	0.635
501.78	0.886
501.99	0.697
502.19	0.369
502.40	1.209
502.61	0.878
502.82	0.922
503.02	0.557
503.23	0.839
503.44	0.792
503.65	0.976
503.86	0.793
504.06	0.865
504.27	0.509
504.48	1.270
504.69	0.967
504.89	0.627
505.10	0.546
505.31	0.529
505.52	1.073
505.72	1.202
505.93	0.635
506.14	0.844
506.35	1.134
506.55	1.210
506.76	1.340
506.97	1.126
507.18	1.049
507.38	1.548
507.59	1.078
507.80	1.021
508.01	1.111
508.21	1.224
508.42	1.395
508.63	1.012
508.84	1.196
509.04	1.244
509.25	1.128
509.46	1.071
509.67	1.422
509.87	1.246
510.08	1.537
510.29	0.658
510.49	1.289
510.70	1.826
510.91	1.159
511.12	1.438
511.32	1.447
511.53	1.292
511.74	1.283
511.94	1.094
512.15	1.700
512.36	1.705
512.57	2.074
512.77	2.085
512.98	2.822
513.19	4.347
513.39	8.291
513.60	13.413
513.81	20.409
514.01	29.454
514.22	37.987
514.43	46.655
514.64	53.811
514.84	59.197
515.05	65.157
515.26	70.926
515.46	74.438
515.67	77.963
515.88	79.133
516.08	81.677
516.29	83.154
516.50	83.739
516.70	85.036
516.91	86.800
517.12	87.045
517.32	87.819
517.53	89.104
517.74	87.942
517.95	88.495
518.15	89.332
518.36	88.715
518.57	89.826
518.77	88.501
518.98	89.878
519.19	90.343
519.39	91.845
519.60	90.530
519.80	90.270
520.01	90.456
520.22	91.579
520.42	90.195
520.63	89.728
520.84	87.761
521.04	88.086
521.25	86.117
521.46	88.382
521.66	87.418
521.87	87.839
522.08	88.500
522.28	90.796
522.49	90.733
522.70	90.677
522.90	91.583
523.11	92.335
523.31	92.761
523.52	90.196
523.73	92.477
523.93	91.236
524.14	91.053
524.35	91.541
524.55	90.189
524.76	92.210
524.97	92.053
525.17	91.582
525.38	92.036
525.58	93.453
525.79	92.678
526.00	92.225
526.20	92.567
526.41	90.421
526.61	89.419
526.82	90.989
527.03	90.995
527.23	90.658
527.44	92.571
527.64	91.120
527.85	91.751
528.06	91.111
528.26	90.796
528.47	92.947
528.68	92.516
528.88	94.300
529.09	93.556
529.29	95.217
529.50	94.236
529.70	94.369
529.91	93.202
530.12	93.939
530.32	91.770
530.53	93.605
530.73	93.946
530.94	93.298
531.15	94.659
531.35	92.927
531.56	91.219
531.76	93.310
531.97	92.911
532.17	93.554
532.38	93.201
532.59	93.506
532.79	94.027
533.00	92.943
533.20	93.910
533.41	92.505
533.61	93.221
533.82	93.532
534.03	92.795
534.23	92.420
534.44	93.288
534.64	93.399
534.85	93.187
535.05	92.383
535.26	92.781
535.46	93.253
535.67	93.626
535.88	92.022
536.08	92.819
536.29	91.898
536.49	93.687
536.70	92.206
536.90	92.961
537.11	92.079
537.31	90.744
537.52	91.769
537.72	91.756
537.93	91.401
538.13	91.619
538.34	92.437
538.55	91.946
538.75	91.391
538.96	90.681
539.16	90.498
539.37	90.310
539.57	90.712
539.78	87.920
539.98	86.533
540.19	81.150
540.39	74.507
540.60	66.899
540.80	58.835
541.01	51.504
541.21	43.691
541.42	37.079
541.62	30.628
541.83	25.129
542.03	20.017
542.24	15.934
542.44	12.884
542.65	9.605
542.85	7.406
543.06	5.576
543.26	3.912
543.47	2.701
543.67	1.797
543.88	1.690
544.08	1.317
544.29	1.560
544.49	1.102
544.70	0.930
544.90	0.877
545.11	0.599
545.31	0.912
545.52	0.468
545.72	0.956
545.93	0.757
546.13	1.103
546.34	0.862
546.54	0.456
546.75	0.537
546.95	0.704
547.15	0.664
547.36	0.521
547.56	0.582
547.77	1.127
547.97	0.261
548.18	0.412
548.38	0.438
548.59	0.204
548.79	0.358
549.00	0.399
549.20	0.831
549.41	0.388
549.61	0.800
549.81	0.383
550.02	0.640
550.22	0.573
550.43	0.445
550.63	0.630
550.84	0.637
551.04	0.509
551.25	0.455
551.45	0.726
551.65	0.680
551.86	0.456
552.06	0.997
552.27	0.636
552.47	0.222
552.68	0.498
552.88	0.108
553.08	0.371
553.29	0.680
553.49	0.824
553.70	0.557
553.90	0.498
554.11	0.649
554.31	0.289
554.51	0.564
554.72	0.373
554.92	0.437
555.13	0.305
555.33	0.366
555.53	0.462
555.74	0.325
555.94	0.741
556.15	0.591
556.35	0.132
556.56	0.723
556.76	0.411
556.96	0.299
557.17	0.289
557.37	0.638
557.58	0.414
557.78	0.294
557.98	0.157
558.19	0.457
558.39	0.337
558.59	0.555
558.80	0.290
559.00	0.527
559.21	0.565
559.41	0.243
559.61	0.306
559.82	0.487
560.02	0.038
560.23	0.594
560.43	0.705
560.63	0.360
560.84	0.496
561.04	0.427
561.24	0.414
561.45	0.316
561.65	0.504
561.85	0.280
562.06	0.418
562.26	0.271
562.47	0.446
562.67	0.302
562.87	0.305
563.08	0.416
563.28	0.546
563.48	0.442
563.69	0.258
563.89	0.481
564.09	0.499
564.30	0.518
564.50	0.452
564.70	0.355
564.91	0.372
565.11	0.411
565.31	0.158
565.52	0.549
565.72	0.255
565.92	0.307
566.13	0.293
566.33	0.747
566.53	0.791
566.74	0.562
566.94	0.490
567.14	0.315
567.35	0.374
567.55	0.363
567.75	0.346
567.96	0.782
568.16	0.762
568.36	0.645
568.57	0.370
568.77	0.693
568.97	0.337
569.18	0.566
569.38	0.578
569.58	0.535
569.79	0.214
569.99	0.628
570.19	0.630
570.39	0.473
570.60	0.285
570.80	0.681
571.00	0.770
571.21	0.500
571.41	0.459
571.61	0.638
571.82	0.794
572.02	0.662
572.22	0.368
572.42	0.705
572.63	0.583
572.83	0.800
573.03	0.633
573.24	0.775
573.44	0.548
573.64	0.649
573.84	0.391
574.05	0.633
574.25	0.561
574.45	0.528
574.66	0.465
574.86	0.938
575.06	0.920
575.26	0.435
575.47	0.793
575.67	0.784
575.87	0.692
576.07	0.977
576.28	0.776
576.48	0.885
576.68	1.028
576.88	1.220
577.09	1.036
577.29	0.942
577.49	1.205
577.69	0.941
577.90	0.992
578.10	0.695
578.30	1.279
578.50	1.449
578.71	1.169
578.91	1.480
579.11	1.881
579.31	2.469
579.52	2.768
579.72	4.077
579.92	6.140
580.12	9.309
580.33	13.126
580.53	18.317
580.73	26.226
580.93	32.881
581.13	40.204
581.34	47.393
581.54	53.203
581.74	59.489
581.94	66.161
582.15	69.886
582.35	74.110
582.55	77.053
582.75	79.886
582.95	83.578
583.16	85.203
583.36	87.209
583.56	89.272
583.76	90.185
583.96	91.543
584.17	91.881
584.37	91.985
584.57	92.914
584.77	92.487
584.97	93.778
585.18	92.562
585.38	92.399
585.58	91.108
585.78	91.478
585.98	91.212
586.19	91.806
586.39	89.399
586.59	90.010
586.79	90.704
586.99	90.458
587.20	89.916
587.40	91.279
587.60	92.620
587.80	91.418
588.00	90.976
588.20	91.870
588.41	92.677
588.61	92.154
588.81	90.661
589.01	91.474
589.21	91.445
589.41	90.965
589.62	91.838
589.82	91.982
590.02	91.283
590.22	91.967
590.42	90.481
590.62	91.199
590.83	91.196
591.03	90.806
591.23	90.514
591.43	92.104
591.63	91.083
591.83	91.917
592.03	92.291
592.24	91.839
592.44	91.580
592.64	91.121
592.84	91.894
593.04	93.692
593.24	92.215
593.44	93.154
593.65	92.627
593.85	92.680
594.05	92.183
594.25	93.199
594.45	91.873
594.65	91.910
594.85	91.301
595.06	90.741
595.26	90.410
595.46	90.265
595.66	91.274
595.86	90.727
596.06	91.846
596.26	91.037
596.46	92.017
596.66	91.801
596.87	92.458
597.07	91.959
597.27	91.610
597.47	92.505
597.67	91.821
597.87	91.333
598.07	91.464
598.27	91.160
598.47	91.352
598.67	90.727
598.88	90.822
599.08	90.417
599.28	90.127
599.48	87.953
599.68	88.287
599.88	88.175
600.08	88.857
600.28	90.484
600.48	89.089
600.68	89.519
600.88	90.189
601.09	91.029
601.29	91.811
601.49	91.029
601.69	91.167
601.89	91.683
602.09	90.967
602.29	92.258
602.49	91.618
602.69	91.463
602.89	91.680
603.09	91.331
603.29	93.169
603.49	90.960
603.69	90.755
603.90	90.859
604.10	89.799
604.30	90.678
604.50	89.755
604.70	90.394
604.90	90.579
605.10	89.763
605.30	90.328
605.50	89.957
605.70	91.473
605.90	90.607
606.10	90.448
606.30	90.706
606.50	91.459
606.70	91.620
606.90	91.809
607.10	92.332
607.30	90.842
607.50	91.970
607.70	91.862
607.90	91.308
608.10	90.949
608.30	91.909
608.50	89.893
608.70	90.386
608.90	90.204
609.11	90.808
609.31	90.644
609.51	91.649
609.71	91.538
609.91	90.136
610.11	89.587
610.31	90.229
610.51	90.783
610.71	90.040
610.91	90.038
611.11	90.278
611.31	90.259
611.51	90.783
611.71	89.843
611.91	89.672
612.11	91.160
612.31	92.032
612.51	90.378
612.71	90.120
612.91	91.004
613.11	90.158
613.31	90.890
613.51	90.177
613.71	89.582
613.91	90.196
614.11	89.497
614.31	88.607
614.50	89.420
614.70	88.823
614.90	88.791
615.10	90.103
615.30	88.810
615.50	88.503
615.70	88.796
615.90	89.548
616.10	89.273
616.30	89.152
616.50	89.754
616.70	90.739
616.90	91.356
617.10	89.865
617.30	91.966
617.50	91.801
617.70	91.565
617.90	91.730
618.10	91.116
618.30	92.244
618.50	92.339
618.70	92.573
618.90	92.640
619.10	92.551
619.30	91.787
619.49	92.356
619.69	91.584
619.89	90.803
620.09	91.186
620.29	90.120
620.49	90.130
620.69	90.560
620.89	90.757
621.09	90.906
621.29	90.592
621.49	91.160
621.69	91.566
621.89	91.018
622.09	90.790
622.29	91.426
622.48	90.847
622.68	92.240
622.88	92.266
623.08	91.820
623.28	91.306
623.48	91.355
623.68	91.883
623.88	91.246
624.08	91.908
624.28	90.741
624.48	91.247
624.67	90.752
624.87	92.254
625.07	91.402
625.27	92.962
625.47	92.136
625.67	92.204
625.87	91.837
626.07	91.463
626.27	92.110
626.47	91.527
626.66	90.863
626.86	91.855
627.06	91.021
627.26	90.473
627.46	90.964
627.66	92.084
627.86	92.303
628.06	90.868
628.25	92.022
628.45	90.363
628.65	90.199
628.85	90.146
629.05	89.878
629.25	90.417
629.45	89.646
629.65	90.320
629.84	90.353
630.04	90.269
630.24	89.821
630.44	90.272
630.64	91.039
630.84	90.600
631.04	92.238
631.23	92.172
631.43	91.062
631.63	91.698
631.83	91.486
632.03	91.225
632.23	91.498
632.42	90.170
632.62	91.843
632.82	91.460
633.02	92.192
633.22	92.639
633.42	91.099
633.62	90.860
633.81	90.478
634.01	91.667
634.21	90.705
634.41	91.284
634.61	91.579
634.80	92.263
635.00	91.884
635.20	90.266
635.40	91.125
635.60	90.490
635.80	90.069
635.99	90.146
636.19	89.939
636.39	90.660
636.59	90.862
636.79	89.068
636.98	90.585
637.18	91.089
637.38	90.325
637.58	90.303
637.78	88.976
637.97	89.090
638.17	87.648
638.37	83.539
