SpectraSuite Data File
++++++++++++++++++++++++++++++++++++
Date: Mon Mar 27 20:03:06 EEST 2017
User: TheoProf
Dark Spectrum Present: Yes
Reference Spectrum Present: Yes
Number of Sampled Component Spectra: 1
Spectrometers: USB4C02475
Integration Time (usec): 426341 (USB4C02475)
Spectra Averaged: 1 (USB4C02475)
Boxcar Smoothing: 0 (USB4C02475)
Correct for Electrical Dark: No (USB4C02475)
Strobe/Lamp Enabled: No (USB4C02475)
Correct for Detector Non-linearity: No (USB4C02475)
Correct for Stray Light: No (USB4C02475)
Number of Pixels in Processed Spectrum: 3648
>>>>>Begin Processed Spectral Data<<<<<
344.91	55.882
345.13	55.882
345.35	55.882
345.57	0.000
345.79	29.630
346.00	-589.474
346.22	-305.263
346.44	425.000
346.66	983.333
346.87	361.667
347.09	0.000
347.31	-307.692
347.53	-310.714
347.74	-10.937
347.96	-108.333
348.18	385.000
348.40	1125.000
348.61	-292.000
348.83	-475.000
349.05	-380.952
349.27	152.857
349.48	-683.333
349.70	428.571
349.92	1310.000
350.14	-400.000
350.35	2725.000
350.57	327.273
350.79	447.619
351.01	255.102
351.22	340.541
351.44	-785.714
351.66	157.143
351.87	440.541
352.09	158.209
352.31	186.486
352.53	353.333
352.74	198.551
352.96	177.193
353.18	260.417
353.40	131.915
353.61	247.826
353.83	146.479
354.05	600.000
354.26	-3166.667
354.48	1750.000
354.70	-520.000
354.92	193.151
355.13	478.571
355.35	-1318.182
355.57	-100.000
355.78	134.211
356.00	662.500
356.22	341.935
356.44	1575.000
356.65	2080.000
356.87	1300.000
357.09	380.000
357.30	395.652
357.52	171.429
357.74	653.333
357.95	195.313
358.17	-1675.000
358.39	-212.500
358.60	2825.000
358.82	50.000
359.04	168.966
359.26	134.043
359.47	359.259
359.69	560.714
359.91	293.548
360.12	410.526
360.34	-890.909
360.56	600.000
360.77	-1020.000
360.99	-1545.455
361.21	217.778
361.42	-4066.667
361.64	-828.571
361.86	592.857
362.07	720.833
362.29	246.667
362.51	205.714
362.72	530.000
362.94	151.786
363.16	240.000
363.37	275.000
363.59	161.429
363.81	297.297
364.02	818.750
364.24	7300.000
364.46	448.148
364.67	242.593
364.89	354.545
365.11	0.000
365.32	283.333
365.54	-368.750
365.76	-164.286
365.97	308.696
366.19	294.444
366.41	161.538
366.62	238.182
366.84	103.750
367.05	218.182
367.27	3633.333
367.49	478.571
367.70	182.609
367.92	160.976
368.14	152.308
368.35	357.692
368.57	104.819
368.79	135.165
369.00	254.386
369.22	212.000
369.43	173.626
369.65	1242.857
369.87	481.818
370.08	244.444
370.30	230.435
370.51	376.923
370.73	83.117
370.95	427.273
371.16	280.000
371.38	520.000
371.60	906.250
371.81	450.000
372.03	1650.000
372.24	354.286
372.46	329.630
372.68	126.761
372.89	170.667
373.11	111.881
373.32	-80.769
373.54	1500.000
373.76	160.606
373.97	204.167
374.19	167.089
374.40	491.176
374.62	384.848
374.84	-453.846
375.05	150.000
375.27	688.235
375.48	495.238
375.70	332.258
375.92	88.793
376.13	-1200.000
376.35	97.619
376.56	222.449
376.78	103.000
376.99	327.273
377.21	279.070
377.43	164.516
377.64	257.500
377.86	122.500
378.07	184.127
378.29	190.476
378.51	95.294
378.72	294.872
378.94	97.436
379.15	28.421
379.37	105.357
379.58	136.923
379.80	131.148
380.01	176.923
380.23	390.000
380.45	217.778
380.66	520.000
380.88	105.882
381.09	159.574
381.31	129.487
381.52	76.154
381.74	38.158
381.95	295.238
382.17	130.357
382.39	163.889
382.60	151.429
382.82	91.818
383.03	86.076
383.25	205.263
383.46	61.818
383.68	112.121
383.89	124.324
384.11	168.182
384.32	100.000
384.54	-285.714
384.76	93.548
384.97	146.774
385.19	81.429
385.40	141.096
385.62	147.143
385.83	107.059
386.05	112.069
386.26	83.471
386.48	67.033
386.69	44.000
386.91	32.979
387.12	133.333
387.34	100.901
387.55	40.278
387.77	58.915
387.98	90.071
388.20	50.467
388.41	45.238
388.63	85.606
388.84	33.708
389.06	108.571
389.27	53.731
389.49	76.471
389.70	98.473
389.92	72.727
390.13	21.053
390.35	53.435
390.56	112.500
390.78	89.542
390.99	73.196
391.21	20.588
391.42	29.323
391.64	81.818
391.85	37.736
392.07	60.684
392.28	47.468
392.50	52.083
392.71	78.740
392.93	43.939
393.14	74.419
393.36	105.738
393.57	17.593
393.79	76.829
394.00	52.174
394.22	99.138
394.43	62.105
394.65	47.778
394.86	21.512
395.08	57.377
395.29	20.513
395.50	36.082
395.72	21.472
395.93	103.871
396.15	6.790
396.36	41.176
396.58	39.041
396.79	14.110
397.01	49.206
397.22	32.990
397.44	54.106
397.65	56.410
397.87	48.087
398.08	7.190
398.29	53.252
398.51	38.806
398.72	16.327
398.94	12.941
399.15	44.560
399.37	35.838
399.58	26.638
399.80	-12.037
400.01	47.895
400.22	32.857
400.44	37.555
400.65	-9.722
400.87	56.710
401.08	34.343
401.30	20.370
401.51	30.049
401.72	46.835
401.94	43.750
402.15	17.123
402.37	8.889
402.58	26.071
402.80	8.333
403.01	18.483
403.22	28.626
403.44	41.197
403.65	29.841
403.87	19.291
404.08	46.441
404.30	8.787
404.51	27.439
404.72	15.576
404.94	21.839
405.15	29.921
405.37	24.138
405.58	9.873
405.79	24.242
406.01	19.792
406.22	21.136
406.44	22.491
406.65	21.918
406.86	16.917
407.08	20.645
407.29	24.462
407.51	15.363
407.72	16.505
407.93	11.475
408.15	14.815
408.36	5.398
408.58	30.000
408.79	19.403
409.00	8.158
409.22	21.158
409.43	12.145
409.64	14.762
409.86	7.416
410.07	21.099
410.29	17.073
410.50	8.597
410.71	10.165
410.93	25.573
411.14	16.314
411.35	17.167
411.57	11.968
411.78	15.694
412.00	17.317
412.21	18.526
412.42	13.669
412.64	3.711
412.85	8.850
413.06	5.851
413.28	14.745
413.49	17.757
413.70	14.234
413.92	15.537
414.13	4.579
414.34	12.893
414.56	17.185
414.77	6.688
414.98	10.732
415.20	10.277
415.41	13.898
415.63	11.485
415.84	25.189
416.05	13.681
416.27	17.565
416.48	13.300
416.69	8.863
416.91	22.308
417.12	18.760
417.33	23.597
417.55	23.128
417.76	20.870
417.97	15.214
418.19	27.061
418.40	17.917
418.61	23.822
418.83	29.346
419.04	23.210
419.25	26.338
419.46	25.890
419.68	28.706
419.89	24.036
420.10	31.400
420.32	24.505
420.53	32.200
420.74	32.971
420.96	31.212
421.17	31.674
421.38	39.803
421.60	40.602
421.81	37.773
422.02	38.728
422.23	37.514
422.45	41.945
422.66	42.649
422.87	44.308
423.09	52.000
423.30	50.691
423.51	48.840
423.73	52.620
423.94	56.309
424.15	50.260
424.36	49.084
424.58	51.547
424.79	53.990
425.00	57.171
425.22	56.041
425.43	55.955
425.64	60.139
425.85	56.861
426.07	64.501
426.28	64.522
426.49	66.539
426.71	64.232
426.92	69.010
427.13	62.661
427.34	69.418
427.56	74.677
427.77	66.814
427.98	69.694
428.19	69.388
428.41	72.841
428.62	75.577
428.83	70.603
429.04	69.976
429.26	75.000
429.47	75.281
429.68	73.663
429.89	76.798
430.11	75.713
430.32	73.297
430.53	82.041
430.74	79.385
430.96	80.551
431.17	79.499
431.38	78.045
431.59	81.465
431.81	78.987
432.02	73.440
432.23	74.098
432.44	79.590
432.66	78.463
432.87	76.424
433.08	79.476
433.29	80.486
433.51	81.918
433.72	76.029
433.93	74.683
434.14	76.886
434.35	74.519
434.57	70.801
434.78	70.418
434.99	76.268
435.20	74.698
435.42	66.774
435.63	68.846
435.84	72.374
436.05	70.196
436.26	66.212
436.48	71.066
436.69	71.126
436.90	66.127
437.11	66.748
437.32	70.293
437.54	68.372
437.75	70.364
437.96	64.538
438.17	64.490
438.38	65.443
438.60	68.689
438.81	66.194
439.02	60.706
439.23	65.698
439.44	62.700
439.66	62.343
439.87	62.950
440.08	62.988
440.29	62.173
440.50	63.194
440.72	61.030
440.93	59.563
441.14	60.266
441.35	63.656
441.56	58.040
441.77	60.983
441.99	55.480
442.20	56.223
442.41	58.347
442.62	54.324
442.83	58.580
443.04	55.663
443.26	56.545
443.47	56.816
443.68	53.994
443.89	51.423
444.10	50.597
444.31	55.790
444.53	50.026
444.74	50.025
444.95	48.252
445.16	48.579
445.37	51.449
445.58	46.729
445.80	42.396
446.01	46.174
446.22	38.250
446.43	39.273
446.64	36.510
446.85	36.180
447.06	37.050
447.28	33.882
447.49	31.513
447.70	32.332
447.91	29.069
448.12	25.255
448.33	24.415
448.54	26.534
448.76	21.998
448.97	18.247
449.18	20.285
449.39	19.636
449.60	16.299
449.81	16.462
450.02	15.132
450.23	15.363
450.45	13.628
450.66	12.157
450.87	11.853
451.08	12.113
451.29	12.028
451.50	11.406
451.71	6.552
451.92	6.555
452.13	8.966
452.35	9.435
452.56	4.334
452.77	5.066
452.98	5.683
453.19	5.550
453.40	4.302
453.61	6.846
453.82	3.934
454.03	5.148
454.25	6.145
454.46	3.370
454.67	3.008
454.88	-0.166
455.09	4.211
455.30	2.203
455.51	3.888
455.72	2.707
455.93	4.434
456.14	6.765
456.35	1.021
456.56	3.900
456.78	4.314
456.99	4.844
457.20	4.112
457.41	3.765
457.62	0.959
457.83	3.926
458.04	2.241
458.25	0.456
458.46	2.913
458.67	3.780
458.88	2.199
459.09	1.913
459.30	3.186
459.51	3.222
459.73	3.505
459.94	4.563
460.15	5.069
460.36	2.505
460.57	3.188
460.78	-0.139
460.99	3.365
461.20	1.776
461.41	4.993
461.62	0.530
461.83	1.690
462.04	2.952
462.25	2.784
462.46	2.708
462.67	2.256
462.88	4.656
463.09	4.584
463.30	2.758
463.51	2.866
463.72	4.588
463.93	1.739
464.15	-0.862
464.36	1.284
464.57	3.228
464.78	4.778
464.99	2.602
465.20	3.538
465.41	3.510
465.62	3.279
465.83	3.451
466.04	1.438
466.25	3.379
466.46	2.786
466.67	1.619
466.88	2.690
467.09	1.781
467.30	1.552
467.51	2.587
467.72	0.803
467.93	0.443
468.14	2.742
468.35	2.676
468.56	2.888
468.77	2.014
468.98	2.054
469.19	3.268
469.40	1.592
469.61	2.536
469.82	2.236
470.03	2.016
470.24	1.352
470.45	3.363
470.66	1.583
470.87	1.803
471.08	1.827
471.29	1.740
471.50	3.994
471.71	1.524
471.92	2.503
472.13	1.747
472.34	1.109
472.55	2.570
472.76	2.496
472.97	2.085
473.18	1.621
473.39	2.965
473.60	2.337
473.81	2.426
474.01	2.496
474.22	-0.653
474.43	1.956
474.64	2.350
474.85	2.137
475.06	2.510
475.27	1.508
475.48	1.698
475.69	2.401
475.90	1.632
476.11	1.342
476.32	2.941
476.53	0.675
476.74	1.766
476.95	1.867
477.16	2.988
477.37	1.260
477.58	2.983
477.79	2.287
478.00	1.337
478.21	3.047
478.41	2.087
478.62	1.288
478.83	2.793
479.04	1.950
479.25	2.390
479.46	2.366
479.67	1.498
479.88	1.635
480.09	2.282
480.30	0.960
480.51	2.903
480.72	2.874
480.93	1.609
481.14	1.736
481.34	1.222
481.55	2.042
481.76	1.166
481.97	2.770
482.18	1.764
482.39	2.238
482.60	1.065
482.81	1.877
483.02	1.863
483.23	1.923
483.44	1.806
483.65	1.064
483.85	1.856
484.06	2.086
484.27	1.755
484.48	1.758
484.69	2.045
484.90	2.529
485.11	1.012
485.32	2.585
485.53	2.194
485.73	2.081
485.94	2.333
486.15	2.695
486.36	1.968
486.57	2.562
486.78	3.350
486.99	3.500
487.20	3.537
487.41	4.600
487.61	3.732
487.82	4.403
488.03	4.894
488.24	5.888
488.45	5.321
488.66	6.246
488.87	7.535
489.08	7.404
489.28	7.997
489.49	7.618
489.70	9.591
489.91	9.828
490.12	10.552
490.33	11.127
490.54	12.624
490.74	13.201
490.95	13.487
491.16	14.069
491.37	15.891
491.58	16.174
491.79	17.634
492.00	18.135
492.20	18.415
492.41	20.052
492.62	21.269
492.83	21.516
493.04	22.704
493.25	25.051
493.45	25.983
493.66	26.029
493.87	27.005
494.08	27.518
494.29	29.388
494.50	29.659
494.70	31.935
494.91	32.637
495.12	34.246
495.33	34.798
495.54	36.978
495.75	37.889
495.95	38.961
496.16	40.347
496.37	41.376
496.58	42.459
496.79	43.923
496.99	44.955
497.20	46.140
497.41	49.090
497.62	47.832
497.83	49.075
498.04	49.357
498.24	50.000
498.45	51.831
498.66	51.506
498.87	52.744
499.08	54.641
499.28	53.318
499.49	53.784
499.70	55.365
499.91	55.614
500.12	58.312
500.32	56.831
500.53	58.230
500.74	58.946
500.95	60.492
501.15	60.583
501.36	62.470
501.57	62.393
501.78	65.862
501.99	66.298
502.19	65.800
502.40	66.963
502.61	69.020
502.82	69.899
503.02	70.305
503.23	70.724
503.44	70.724
503.65	72.854
503.86	74.677
504.06	72.500
504.27	73.006
504.48	72.916
504.69	74.254
504.89	74.539
505.10	74.906
505.31	74.218
505.52	74.489
505.72	76.532
505.93	75.819
506.14	73.877
506.35	76.633
506.55	75.901
506.76	76.005
506.97	76.684
507.18	76.089
507.38	75.369
507.59	73.969
507.80	71.924
508.01	72.539
508.21	72.474
508.42	74.379
508.63	71.954
508.84	70.607
509.04	70.367
509.25	68.310
509.46	68.378
509.67	70.056
509.87	68.203
510.08	68.110
510.29	65.374
510.49	64.950
510.70	63.801
510.91	63.213
511.12	62.128
511.32	61.356
511.53	62.085
511.74	60.998
511.94	61.706
512.15	60.409
512.36	60.187
512.57	57.916
512.77	58.504
512.98	57.069
513.19	57.614
513.39	57.443
513.60	55.844
513.81	56.227
514.01	54.986
514.22	55.648
514.43	54.788
514.64	53.737
514.84	52.839
515.05	52.260
515.26	51.168
515.46	49.996
515.67	49.361
515.88	47.593
516.08	47.035
516.29	45.095
516.50	44.421
516.70	41.069
516.91	40.428
517.12	38.398
517.32	36.293
517.53	35.525
517.74	35.320
517.95	32.307
518.15	31.941
518.36	29.483
518.57	28.012
518.77	25.971
518.98	25.106
519.19	23.022
519.39	22.471
519.60	21.000
519.80	20.482
520.01	19.050
520.22	17.599
520.42	16.265
520.63	15.045
520.84	14.068
521.04	12.541
521.25	12.010
521.46	10.911
521.66	9.645
521.87	9.283
522.08	8.024
522.28	7.666
522.49	6.465
522.70	5.904
522.90	4.948
523.11	4.259
523.31	3.801
523.52	2.964
523.73	2.902
523.93	2.837
524.14	2.008
524.35	1.566
524.55	1.630
524.76	1.075
524.97	1.625
525.17	1.107
525.38	1.320
525.58	1.218
525.79	1.061
526.00	0.996
526.20	0.910
526.41	0.986
526.61	0.950
526.82	0.630
527.03	0.978
527.23	1.322
527.44	0.579
527.64	0.312
527.85	0.715
528.06	0.773
528.26	1.002
528.47	0.753
528.68	0.930
528.88	1.002
529.09	1.002
529.29	0.792
529.50	0.775
529.70	0.739
529.91	0.856
530.12	0.782
530.32	0.992
530.53	1.046
530.73	0.779
530.94	0.583
531.15	0.831
531.35	1.299
531.56	0.643
531.76	1.019
531.97	0.999
532.17	0.517
532.38	0.994
532.59	0.534
532.79	0.946
533.00	1.092
533.20	0.986
533.41	0.867
533.61	0.540
533.82	0.972
534.03	0.418
534.23	0.599
534.44	0.465
534.64	0.768
534.85	0.832
535.05	0.776
535.26	0.651
535.46	0.906
535.67	0.567
535.88	1.109
536.08	0.732
536.29	1.102
536.49	0.836
536.70	0.946
536.90	0.922
537.11	0.896
537.31	0.611
537.52	1.115
537.72	0.870
537.93	0.693
538.13	0.541
538.34	0.579
538.55	0.922
538.75	0.624
538.96	0.737
539.16	0.785
539.37	1.136
539.57	0.763
539.78	0.893
539.98	0.729
540.19	0.712
540.39	0.949
540.60	0.710
540.80	0.992
541.01	0.712
541.21	0.773
541.42	0.741
541.62	0.807
541.83	0.781
542.03	0.840
542.24	0.713
542.44	1.071
542.65	0.874
542.85	0.900
543.06	0.484
543.26	1.069
543.47	0.561
543.67	0.580
543.88	1.031
544.08	0.833
544.29	1.590
544.49	1.217
544.70	0.759
544.90	0.975
545.11	0.696
545.31	1.082
545.52	0.870
545.72	1.105
545.93	1.519
546.13	1.479
546.34	1.233
546.54	1.176
546.75	1.545
546.95	1.667
547.15	1.592
547.36	1.257
547.56	2.100
547.77	2.610
547.97	2.203
548.18	2.844
548.38	3.101
548.59	2.797
548.79	2.843
549.00	3.575
549.20	4.021
549.41	4.114
549.61	4.549
549.81	4.532
550.02	5.265
550.22	5.662
550.43	6.165
550.63	6.553
550.84	8.084
551.04	8.073
551.25	9.236
551.45	9.419
551.65	10.827
551.86	11.255
552.06	12.687
552.27	13.434
552.47	14.041
552.68	15.881
552.88	15.931
553.08	17.306
553.29	17.910
553.49	19.357
553.70	20.974
553.90	21.441
554.11	23.020
554.31	23.346
554.51	24.361
554.72	25.506
554.92	27.161
555.13	28.535
555.33	29.705
555.53	30.419
555.74	31.520
555.94	33.853
556.15	34.988
556.35	36.135
556.56	37.634
556.76	39.237
556.96	39.309
557.17	40.926
557.37	42.887
557.58	44.298
557.78	45.338
557.98	46.429
558.19	48.872
558.39	49.138
558.59	51.217
558.80	51.902
559.00	54.844
559.21	55.927
559.41	56.643
559.61	58.269
559.82	60.986
560.02	62.639
560.23	63.081
560.43	64.461
560.63	66.334
560.84	67.563
561.04	69.245
561.24	69.533
561.45	71.397
561.65	71.957
561.85	73.931
562.06	73.836
562.26	76.299
562.47	76.906
562.67	77.133
562.87	77.914
563.08	78.656
563.28	79.576
563.48	79.539
563.69	80.639
563.89	81.218
564.09	82.815
564.30	84.442
564.50	83.873
564.70	83.949
564.91	84.945
565.11	84.765
565.31	85.126
565.52	86.401
565.72	85.891
565.92	85.019
566.13	86.334
566.33	87.000
566.53	86.736
566.74	86.927
566.94	87.741
567.14	88.483
567.35	88.778
567.55	87.848
567.75	88.721
567.96	88.586
568.16	88.670
568.36	89.225
568.57	87.946
568.77	87.935
568.97	88.005
569.18	87.961
569.38	88.490
569.58	87.549
569.79	88.704
569.99	87.881
570.19	86.510
570.39	86.589
570.60	85.684
570.80	87.375
571.00	87.382
571.21	86.569
571.41	86.584
571.61	85.343
571.82	85.122
572.02	85.410
572.22	84.698
572.42	86.010
572.63	84.706
572.83	86.324
573.03	85.220
573.24	84.374
573.44	83.780
573.64	83.242
573.84	83.630
574.05	84.636
574.25	84.140
574.45	83.316
574.66	83.750
574.86	84.673
575.06	84.195
575.26	84.094
575.47	82.900
575.67	83.138
575.87	83.467
576.07	82.768
576.28	83.584
576.48	82.813
576.68	83.040
576.88	82.918
577.09	83.842
577.29	82.668
577.49	81.745
577.69	83.300
577.90	81.097
578.10	81.677
578.30	81.146
578.50	81.983
578.71	81.139
578.91	79.887
579.11	82.227
579.31	82.481
579.52	82.189
579.72	81.524
579.92	81.726
580.12	79.881
580.33	81.189
580.53	80.660
580.73	80.112
580.93	80.264
581.13	80.915
581.34	80.509
581.54	80.549
581.74	80.737
581.94	81.428
582.15	80.962
582.35	82.115
582.55	81.856
582.75	81.670
582.95	82.791
583.16	82.670
583.36	83.542
583.56	83.210
583.76	83.994
583.96	83.201
584.17	83.709
584.37	84.285
584.57	84.862
584.77	84.061
584.97	84.845
585.18	84.381
585.38	85.160
585.58	84.363
585.78	85.238
585.98	84.965
586.19	85.371
586.39	84.275
586.59	85.234
586.79	85.730
586.99	84.655
587.20	85.150
587.40	85.977
587.60	86.728
587.80	85.537
588.00	86.014
588.20	86.747
588.41	85.695
588.61	85.258
588.81	85.081
589.01	85.602
589.21	85.190
589.41	83.206
589.62	84.480
589.82	83.977
590.02	82.780
590.22	83.671
590.42	82.919
590.62	82.579
590.83	82.431
591.03	81.767
591.23	82.378
591.43	83.817
591.63	82.275
591.83	83.594
592.03	83.359
592.24	82.567
592.44	81.609
592.64	80.250
592.84	80.088
593.04	79.837
593.24	79.295
593.44	77.949
593.65	77.723
593.85	77.609
594.05	76.769
594.25	76.846
594.45	74.690
594.65	74.940
594.85	73.315
595.06	74.295
595.26	72.308
595.46	71.544
595.66	72.796
595.86	71.203
596.06	70.153
596.26	68.795
596.46	68.970
596.66	67.996
596.87	67.426
597.07	66.804
597.27	65.852
597.47	65.899
597.67	65.204
597.87	64.552
598.07	64.592
598.27	63.499
598.47	63.793
598.67	62.853
598.88	63.084
599.08	61.335
599.28	62.005
599.48	60.365
599.68	60.370
599.88	59.411
600.08	59.743
600.28	59.600
600.48	58.291
600.68	58.183
600.88	58.783
601.09	57.433
601.29	56.634
601.49	55.494
601.69	55.014
601.89	54.600
602.09	54.182
602.29	52.481
602.49	52.363
602.69	52.668
602.89	52.650
603.09	51.689
603.29	51.221
603.49	50.626
603.69	50.300
603.90	49.402
604.10	48.997
604.30	49.243
604.50	47.971
604.70	48.012
604.90	48.035
605.10	46.359
605.30	46.702
605.50	45.602
605.70	46.283
605.90	45.859
606.10	44.729
606.30	44.823
606.50	43.784
606.70	44.079
606.90	43.617
607.10	43.611
607.30	42.111
607.50	42.372
607.70	41.097
607.90	40.481
608.10	39.669
608.30	38.916
608.50	37.831
608.70	37.388
608.90	36.567
609.11	35.073
609.31	34.864
609.51	34.043
609.71	33.093
609.91	31.528
610.11	31.125
610.31	30.195
610.51	29.177
610.71	27.957
610.91	26.821
611.11	25.508
611.31	25.716
611.51	23.938
611.71	23.139
611.91	22.075
612.11	20.993
612.31	20.331
612.51	19.142
612.71	18.208
612.91	17.761
613.11	16.816
613.31	16.296
613.51	15.149
613.71	14.358
613.91	13.641
614.11	12.893
614.31	12.466
614.50	11.917
614.70	11.316
614.90	10.292
615.10	9.653
615.30	8.627
615.50	8.575
615.70	7.656
615.90	7.030
616.10	6.778
616.30	6.244
616.50	5.585
616.70	5.363
616.90	4.921
617.10	4.498
617.30	4.131
617.50	3.948
617.70	3.517
617.90	3.119
618.10	3.074
618.30	2.772
618.50	2.451
618.70	1.937
618.90	1.793
619.10	1.671
619.30	1.481
619.49	1.273
619.69	1.192
619.89	1.034
620.09	0.845
620.29	1.056
620.49	0.840
620.69	0.524
620.89	0.806
621.09	0.741
621.29	0.594
621.49	0.562
621.69	0.431
621.89	0.694
622.09	0.529
622.29	0.497
622.48	0.354
622.68	0.387
622.88	0.464
623.08	0.472
623.28	0.411
623.48	0.229
623.68	0.398
623.88	0.274
624.08	0.433
624.28	0.468
624.48	0.378
624.67	0.205
624.87	0.164
625.07	0.340
625.27	0.386
625.47	0.422
625.67	0.328
625.87	0.498
626.07	0.331
626.27	0.345
626.47	0.329
626.66	0.426
626.86	0.262
627.06	0.253
627.26	0.342
627.46	0.278
627.66	0.236
627.86	0.422
628.06	0.532
628.25	0.337
628.45	0.589
628.65	0.440
628.85	0.049
629.05	0.232
629.25	0.187
629.45	0.215
629.65	0.386
629.84	0.468
630.04	0.187
630.24	0.539
630.44	0.254
630.64	0.588
630.84	0.365
631.04	0.549
631.23	0.370
631.43	0.329
631.63	0.174
631.83	0.358
632.03	0.329
632.23	0.317
632.42	0.227
632.62	0.304
632.82	0.273
633.02	0.283
633.22	0.396
633.42	0.249
633.62	0.392
633.81	0.495
634.01	0.098
634.21	0.160
634.41	0.220
634.61	0.299
634.80	0.149
635.00	0.036
635.20	0.278
635.40	0.175
635.60	0.247
635.80	0.480
635.99	0.088
636.19	0.281
636.39	0.211
