SpectraSuite Data File
++++++++++++++++++++++++++++++++++++
Date: Mon Mar 27 19:55:56 EEST 2017
User: TheoProf
Dark Spectrum Present: Yes
Reference Spectrum Present: Yes
Number of Sampled Component Spectra: 1
Spectrometers: USB4C02475
Integration Time (usec): 426341 (USB4C02475)
Spectra Averaged: 1 (USB4C02475)
Boxcar Smoothing: 0 (USB4C02475)
Correct for Electrical Dark: No (USB4C02475)
Strobe/Lamp Enabled: No (USB4C02475)
Correct for Detector Non-linearity: No (USB4C02475)
Correct for Stray Light: No (USB4C02475)
Number of Pixels in Processed Spectrum: 3648
>>>>>Begin Processed Spectral Data<<<<<
344.91	5.882
345.13	5.882
345.35	5.882
345.57	0.000
345.79	42.593
346.00	-589.474
346.22	-178.947
346.44	600.000
346.66	1000.000
346.87	150.000
347.09	0.000
347.31	-761.538
347.53	-246.429
347.74	-42.187
347.96	-61.111
348.18	430.000
348.40	1575.000
348.61	-248.000
348.83	-43.750
349.05	-385.714
349.27	68.571
349.48	-333.333
349.70	247.619
349.92	880.000
350.14	-328.571
350.35	1700.000
350.57	163.636
350.79	271.429
351.01	208.163
351.22	243.243
351.44	-571.429
351.66	133.333
351.87	178.378
352.09	164.179
352.31	128.378
352.53	246.667
352.74	121.739
352.96	173.684
353.18	185.417
353.40	244.681
353.61	334.783
353.83	70.423
354.05	712.500
354.26	-2200.000
354.48	2275.000
354.70	60.000
354.92	97.260
355.13	353.571
355.35	-663.636
355.57	-125.000
355.78	69.737
356.00	533.333
356.22	161.290
356.44	650.000
356.65	1400.000
356.87	1420.000
357.09	515.000
357.30	252.174
357.52	189.286
357.74	446.667
357.95	121.875
358.17	-125.000
358.39	-87.500
358.60	1000.000
358.82	161.111
359.04	96.552
359.26	165.957
359.47	174.074
359.69	275.000
359.91	316.129
360.12	273.684
360.34	-900.000
360.56	385.714
360.77	-200.000
360.99	-518.182
361.21	146.667
361.42	-3000.000
361.64	-1214.286
361.86	371.429
362.07	395.833
362.29	170.000
362.51	205.714
362.72	615.000
362.94	85.714
363.16	263.333
363.37	40.000
363.59	162.857
363.81	183.784
364.02	731.250
364.24	5200.000
364.46	285.185
364.67	224.074
364.89	318.182
365.11	0.000
365.32	263.333
365.54	-128.125
365.76	-178.571
365.97	452.174
366.19	172.222
366.41	119.231
366.62	187.273
366.84	101.250
367.05	218.182
367.27	3700.000
367.49	350.000
367.70	139.130
367.92	207.317
368.14	52.308
368.35	134.615
368.57	113.253
368.79	75.824
369.00	178.947
369.22	114.000
369.43	124.176
369.65	571.429
369.87	368.182
370.08	66.667
370.30	193.478
370.51	188.462
370.73	103.896
370.95	872.727
371.16	130.000
371.38	370.000
371.60	812.500
371.81	261.538
372.03	3100.000
372.24	242.857
372.46	318.519
372.68	126.761
372.89	122.667
373.11	129.703
373.32	-73.077
373.54	1087.500
373.76	62.121
373.97	287.500
374.19	154.430
374.40	382.353
374.62	257.576
374.84	-515.385
375.05	120.000
375.27	647.059
375.48	142.857
375.70	270.968
375.92	91.379
376.13	-1933.333
376.35	66.667
376.56	116.327
376.78	94.000
376.99	375.758
377.21	186.047
377.43	58.065
377.64	162.500
377.86	172.500
378.07	80.952
378.29	126.190
378.51	100.000
378.72	182.051
378.94	76.068
379.15	62.105
379.37	48.214
379.58	69.231
379.80	101.639
380.01	100.000
380.23	260.000
380.45	206.667
380.66	-106.667
380.88	97.059
381.09	129.787
381.31	76.923
381.52	79.231
381.74	86.842
381.95	164.286
382.17	98.214
382.39	81.944
382.60	120.000
382.82	49.091
383.03	116.456
383.25	157.895
383.46	112.727
383.68	112.121
383.89	72.072
384.11	131.818
384.32	77.419
384.54	14.286
384.76	100.000
384.97	72.581
385.19	41.429
385.40	126.027
385.62	114.286
385.83	72.941
386.05	62.069
386.26	72.727
386.48	80.220
386.69	30.667
386.91	57.447
387.12	80.000
387.34	54.054
387.55	4.167
387.77	12.403
387.98	98.582
388.20	85.047
388.41	79.762
388.63	48.485
388.84	48.315
389.06	57.143
389.27	33.582
389.49	141.176
389.70	23.664
389.92	26.573
390.13	-5.263
390.35	62.595
390.56	71.094
390.78	83.007
390.99	77.320
391.21	2.941
391.42	81.203
391.64	53.846
391.85	1.887
392.07	15.385
392.28	22.785
392.50	50.000
392.71	51.181
392.93	25.000
393.14	56.589
393.36	110.656
393.57	34.259
393.79	50.000
394.00	44.348
394.22	43.103
394.43	22.632
394.65	26.667
394.86	33.140
395.08	-3.279
395.29	1.923
395.50	34.536
395.72	17.791
395.93	56.774
396.15	25.309
396.36	35.294
396.58	2.055
396.79	20.859
397.01	36.508
397.22	35.052
397.44	48.309
397.65	8.333
397.87	9.836
398.08	26.797
398.29	36.992
398.51	54.229
398.72	20.918
398.94	14.510
399.15	42.487
399.37	54.335
399.58	44.105
399.80	0.926
400.01	16.842
400.22	6.667
400.44	29.258
400.65	-4.167
400.87	29.870
401.08	1.515
401.30	21.759
401.51	22.167
401.72	36.709
401.94	26.667
402.15	16.096
402.37	3.889
402.58	15.714
402.80	21.825
403.01	18.957
403.22	13.359
403.44	20.775
403.65	29.841
403.87	15.354
404.08	15.932
404.30	-6.695
404.51	27.744
404.72	21.495
404.94	17.529
405.15	16.535
405.37	24.451
405.58	6.688
405.79	20.202
406.01	12.847
406.22	14.196
406.44	7.958
406.65	15.890
406.86	15.789
407.08	19.032
407.29	21.774
407.51	12.291
407.72	16.262
407.93	20.765
408.15	11.111
408.36	7.712
408.58	22.857
408.79	2.090
409.00	10.000
409.22	11.136
409.43	6.202
409.64	10.000
409.86	10.048
410.07	9.011
410.29	2.661
410.50	6.787
410.71	7.092
410.93	11.069
411.14	9.110
411.35	9.657
411.57	9.533
411.78	11.469
412.00	8.998
412.21	17.530
412.42	7.194
412.64	1.562
412.85	10.796
413.06	5.674
413.28	6.049
413.49	7.477
413.70	2.342
413.92	9.256
414.13	0.549
414.34	5.455
414.56	4.583
414.77	6.529
414.98	1.626
415.20	6.199
415.41	3.035
415.63	9.035
415.84	6.486
416.05	3.746
416.27	6.780
416.48	4.269
416.69	2.068
416.91	5.256
417.12	4.031
417.33	12.755
417.55	-0.401
417.76	5.507
417.97	-5.170
418.19	7.465
418.40	-0.833
418.61	8.508
418.83	9.494
419.04	11.358
419.25	-0.986
419.46	7.239
419.68	10.118
419.89	2.268
420.10	4.918
420.32	8.787
420.53	9.184
420.74	6.884
420.96	5.042
421.17	3.846
421.38	3.563
421.60	-2.506
421.81	4.592
422.02	6.808
422.23	0.654
422.45	6.484
422.66	6.048
422.87	7.282
423.09	4.316
423.30	4.782
423.51	4.440
423.73	1.283
423.94	5.109
424.15	5.504
424.36	4.582
424.58	6.963
424.79	4.729
425.00	7.512
425.22	3.046
425.43	-2.363
425.64	2.286
425.85	3.102
426.07	8.143
426.28	5.298
426.49	3.537
426.71	3.184
426.92	3.330
427.13	3.028
427.34	6.690
427.56	3.531
427.77	5.221
427.98	2.788
428.19	2.041
428.41	2.582
428.62	10.835
428.83	6.030
429.04	5.892
429.26	2.150
429.47	1.364
429.68	3.990
429.89	4.538
430.11	6.322
430.32	3.446
430.53	3.429
430.74	6.068
430.96	5.440
431.17	8.200
431.38	-0.321
431.59	3.587
431.81	6.855
432.02	1.294
432.23	3.892
432.44	5.311
432.66	9.903
432.87	11.391
433.08	16.303
433.29	19.514
433.51	27.745
433.72	34.861
433.93	42.454
434.14	53.429
434.35	58.665
434.57	65.698
434.78	71.833
434.99	72.497
435.20	84.631
435.42	79.935
435.63	83.654
435.84	84.825
436.05	83.333
436.26	83.756
436.48	83.147
436.69	84.443
436.90	86.115
437.11	85.627
437.32	91.921
437.54	90.930
437.75	87.677
437.96	90.815
438.17	87.858
438.38	87.056
438.60	88.037
438.81	89.953
439.02	87.412
439.23	88.034
439.44	88.902
439.66	89.714
439.87	93.285
440.08	85.730
440.29	86.803
440.50	89.067
440.72	87.534
440.93	89.007
441.14	86.331
441.35	91.567
441.56	88.522
441.77	90.593
441.99	86.378
442.20	87.500
442.41	90.838
442.62	85.137
442.83	88.485
443.04	90.875
443.26	94.903
443.47	92.865
443.68	91.480
443.89	90.148
444.10	87.377
444.31	93.875
444.53	92.661
444.74	88.638
444.95	89.306
445.16	91.269
445.37	91.925
445.58	92.835
445.80	93.594
446.01	97.904
446.22	87.561
446.43	91.887
446.64	88.014
446.85	88.993
447.06	96.300
447.28	92.282
447.49	93.136
447.70	94.595
447.91	92.334
448.12	90.153
448.33	90.731
448.54	93.330
448.76	91.831
448.97	89.662
449.18	92.240
449.39	92.763
449.60	91.850
449.81	92.187
450.02	93.562
450.23	92.745
450.45	88.382
450.66	89.329
450.87	91.644
451.08	85.913
451.29	94.918
451.50	92.617
451.71	93.448
451.92	91.094
452.13	93.184
452.35	89.739
452.56	95.438
452.77	92.335
452.98	95.784
453.19	93.670
453.40	93.041
453.61	93.975
453.82	91.872
454.03	90.096
454.25	91.582
454.46	88.381
454.67	91.878
454.88	90.773
455.09	92.126
455.30	90.713
455.51	89.730
455.72	92.140
455.93	86.817
456.14	95.966
456.35	93.830
456.56	92.448
456.78	87.569
456.99	92.282
457.20	92.516
457.41	87.349
457.62	86.057
457.83	91.627
458.04	92.656
458.25	89.180
458.46	87.021
458.67	93.102
458.88	90.751
459.09	90.398
459.30	87.106
459.51	94.323
459.73	92.386
459.94	89.508
460.15	91.776
460.36	90.587
460.57	90.367
460.78	90.900
460.99	85.397
461.20	88.840
461.41	90.152
461.62	88.630
461.83	90.095
462.04	88.762
462.25	90.118
462.46	87.798
462.67	87.432
462.88	85.774
463.09	91.323
463.30	87.623
463.51	89.827
463.72	89.124
463.93	86.880
464.15	87.935
464.36	86.422
464.57	89.408
464.78	88.086
464.99	82.291
465.20	83.248
465.41	80.545
465.62	77.437
465.83	70.430
466.04	68.185
466.25	62.504
466.46	55.786
466.67	50.147
466.88	43.062
467.09	37.220
467.30	31.680
467.51	26.125
467.72	19.331
467.93	13.485
468.14	12.531
468.35	10.276
468.56	8.244
468.77	6.749
468.98	4.940
469.19	4.564
469.40	3.288
469.61	2.719
469.82	2.385
470.03	2.340
470.24	2.373
470.45	2.637
470.66	2.127
470.87	2.349
471.08	2.468
471.29	1.035
471.50	3.209
471.71	0.985
471.92	2.090
472.13	2.700
472.34	1.803
472.55	2.295
472.76	2.630
472.97	1.951
473.18	2.256
473.39	2.538
473.60	1.997
473.81	0.928
474.01	2.799
474.22	0.147
474.43	1.732
474.64	1.945
474.85	1.058
475.06	1.526
475.27	0.978
475.48	1.066
475.69	1.210
475.90	1.317
476.11	1.041
476.32	2.187
476.53	1.542
476.74	1.823
476.95	2.595
477.16	2.658
477.37	1.019
477.58	2.296
477.79	1.051
478.00	0.831
478.21	2.154
478.41	0.990
478.62	0.970
478.83	2.224
479.04	1.077
479.25	1.519
479.46	1.335
479.67	1.128
479.88	0.792
480.09	2.266
480.30	0.761
480.51	2.046
480.72	1.916
480.93	1.301
481.14	1.421
481.34	0.595
481.55	1.662
481.76	0.498
481.97	1.795
482.18	1.414
482.39	0.776
482.60	1.049
482.81	1.081
483.02	1.628
483.23	1.420
483.44	1.355
483.65	1.196
483.85	1.798
484.06	1.000
484.27	0.942
484.48	1.106
484.69	1.400
484.90	1.244
485.11	0.674
485.32	0.862
485.53	1.738
485.73	0.748
485.94	1.221
486.15	1.401
486.36	0.909
486.57	1.464
486.78	1.287
486.99	1.665
487.20	1.325
487.41	1.853
487.61	1.443
487.82	1.398
488.03	1.369
488.24	0.936
488.45	0.815
488.66	1.062
488.87	1.096
489.08	1.337
489.28	1.753
489.49	0.604
489.70	0.509
489.91	1.022
490.12	0.897
490.33	1.465
490.54	1.399
490.74	1.332
490.95	0.966
491.16	1.279
491.37	0.545
491.58	0.284
491.79	1.013
492.00	1.437
492.20	1.407
492.41	1.346
492.62	1.476
492.83	0.385
493.04	1.225
493.25	1.448
493.45	1.307
493.66	0.898
493.87	1.659
494.08	0.746
494.29	1.309
494.50	0.560
494.70	1.796
494.91	1.445
495.12	1.037
495.33	1.523
495.54	0.996
495.75	1.343
495.95	0.909
496.16	1.310
496.37	0.969
496.58	1.421
496.79	0.420
496.99	1.460
497.20	0.972
497.41	1.278
497.62	0.740
497.83	1.292
498.04	0.992
498.24	1.544
498.45	1.131
498.66	0.625
498.87	1.048
499.08	1.767
499.28	0.840
499.49	0.751
499.70	0.584
499.91	0.736
500.12	1.051
500.32	1.326
500.53	0.521
500.74	0.759
500.95	1.295
501.15	1.183
501.36	0.971
501.57	0.664
501.78	1.616
501.99	0.727
502.19	0.766
502.40	1.499
502.61	1.043
502.82	1.335
503.02	0.980
503.23	1.030
503.44	1.612
503.65	1.148
503.86	1.807
504.06	0.959
504.27	1.140
504.48	0.943
504.69	1.283
504.89	0.837
505.10	0.866
505.31	0.529
505.52	1.498
505.72	1.368
505.93	1.454
506.14	1.325
506.35	0.998
506.55	1.526
506.76	1.203
506.97	1.725
507.18	1.591
507.38	2.046
507.59	1.410
507.80	1.197
508.01	1.581
508.21	1.606
508.42	1.663
508.63	1.388
508.84	1.434
509.04	1.288
509.25	1.574
509.46	1.349
509.67	1.884
509.87	1.877
510.08	2.063
510.29	1.576
510.49	1.740
510.70	2.152
510.91	2.045
511.12	3.070
511.32	3.262
511.53	5.721
511.74	7.956
511.94	11.027
512.15	15.111
512.36	20.665
512.57	25.657
512.77	33.207
512.98	38.677
513.19	45.361
513.39	51.080
513.60	57.444
513.81	63.000
514.01	67.467
514.22	72.180
514.43	75.545
514.64	78.768
514.84	81.983
515.05	82.847
515.26	85.271
515.46	86.066
515.67	90.013
515.88	88.473
516.08	89.499
516.29	88.196
516.50	87.854
516.70	87.239
516.91	87.566
517.12	88.371
517.32	88.930
517.53	89.593
517.74	90.485
517.95	90.275
518.15	91.290
518.36	91.139
518.57	91.120
518.77	89.165
518.98	88.810
519.19	87.978
519.39	89.654
519.60	89.386
519.80	90.758
520.01	88.883
520.22	89.973
520.42	88.927
520.63	89.071
520.84	88.404
521.04	90.081
521.25	88.779
521.46	90.116
521.66	89.669
521.87	90.762
522.08	90.917
522.28	92.334
522.49	92.074
522.70	91.975
522.90	92.645
523.11	93.967
523.31	93.073
523.52	92.349
523.73	94.499
523.93	94.232
524.14	95.696
524.35	93.028
524.55	94.210
524.76	93.698
524.97	94.257
525.17	91.453
525.38	91.855
525.58	93.410
525.79	92.513
526.00	91.243
526.20	92.140
526.41	91.279
526.61	91.247
526.82	91.755
527.03	90.832
527.23	92.812
527.44	92.192
527.64	91.212
527.85	93.681
528.06	93.999
528.26	92.891
528.47	92.511
528.68	93.129
528.88	94.745
529.09	93.515
529.29	93.008
529.50	92.708
529.70	93.003
529.91	92.645
530.12	91.794
530.32	91.240
530.53	93.578
530.73	93.932
530.94	93.652
531.15	94.244
531.35	93.934
531.56	92.986
531.76	94.866
531.97	94.358
532.17	94.628
532.38	92.854
532.59	94.033
532.79	94.264
533.00	92.325
533.20	94.051
533.41	92.992
533.61	93.687
533.82	94.207
534.03	93.760
534.23	93.019
534.44	93.841
534.64	95.238
534.85	94.742
535.05	93.875
535.26	94.322
535.46	93.985
535.67	94.759
535.88	93.672
536.08	92.713
536.29	91.006
536.49	92.666
536.70	92.141
536.90	93.837
537.11	94.172
537.31	91.185
537.52	91.815
537.72	89.841
537.93	88.998
538.13	87.017
538.34	84.302
538.55	79.496
538.75	75.371
538.96	69.935
539.16	64.288
539.37	58.305
539.57	53.236
539.78	45.916
539.98	40.871
540.19	34.789
540.39	30.129
540.60	25.390
540.80	21.441
541.01	17.655
541.21	14.681
541.42	12.117
541.62	9.654
541.83	8.026
542.03	5.822
542.24	4.609
542.44	3.861
542.65	2.691
542.85	1.943
543.06	1.817
543.26	1.339
543.47	0.884
543.67	0.753
543.88	1.312
544.08	0.845
544.29	1.785
544.49	1.145
544.70	0.832
544.90	0.780
545.11	0.780
545.31	1.076
545.52	0.620
545.72	1.052
545.93	0.811
546.13	0.936
546.34	0.814
546.54	0.612
546.75	0.931
546.95	0.734
547.15	0.435
547.36	0.503
547.56	0.776
547.77	1.358
547.97	0.635
548.18	0.645
548.38	0.999
548.59	0.432
548.79	0.633
549.00	0.768
549.20	0.732
549.41	0.869
549.61	0.979
549.81	0.534
550.02	0.952
550.22	0.539
550.43	1.052
550.63	0.818
550.84	0.831
551.04	0.492
551.25	0.789
551.45	0.515
551.65	0.847
551.86	0.393
552.06	0.918
552.27	1.022
552.47	0.564
552.68	0.814
552.88	0.228
553.08	0.562
553.29	0.847
553.49	0.612
553.70	0.753
553.90	0.571
554.11	0.717
554.31	0.701
554.51	0.732
554.72	0.474
554.92	0.722
555.13	0.737
555.33	0.605
555.53	0.412
555.74	0.424
555.94	0.945
556.15	0.984
556.35	0.413
556.56	0.921
556.76	0.592
556.96	0.425
557.17	0.350
557.37	0.813
557.58	0.648
557.78	0.513
557.98	0.432
558.19	0.627
558.39	0.353
558.59	0.572
558.80	0.559
559.00	0.483
559.21	0.663
559.41	0.417
559.61	0.553
559.82	0.444
560.02	0.652
560.23	0.610
560.43	0.811
560.63	0.408
560.84	0.800
561.04	0.480
561.24	0.599
561.45	0.817
561.65	0.690
561.85	0.465
562.06	0.613
562.26	0.399
562.47	0.738
562.67	0.318
562.87	0.431
563.08	0.691
563.28	0.716
563.48	0.695
563.69	0.206
563.89	0.785
564.09	0.604
564.30	0.470
564.50	0.704
564.70	0.637
564.91	0.456
565.11	0.687
565.31	0.552
565.52	0.674
565.72	0.675
565.92	0.718
566.13	0.468
566.33	0.830
566.53	0.760
566.74	0.766
566.94	0.577
567.14	0.542
567.35	0.488
567.55	0.577
567.75	0.760
567.96	0.808
568.16	0.721
568.36	0.788
568.57	0.544
568.77	0.975
568.97	0.910
569.18	0.862
569.38	0.737
569.58	0.652
569.79	0.642
569.99	0.704
570.19	0.914
570.39	0.749
570.60	0.810
570.80	0.933
571.00	0.902
571.21	0.704
571.41	0.633
571.61	0.562
571.82	0.934
572.02	0.828
572.22	0.660
572.42	0.898
572.63	0.513
572.83	0.876
573.03	0.770
573.24	0.920
573.44	0.684
573.64	0.849
573.84	0.616
574.05	1.012
574.25	0.811
574.45	0.867
574.66	0.799
574.86	0.928
575.06	1.253
575.26	0.926
575.47	1.095
575.67	1.086
575.87	1.038
576.07	1.628
576.28	1.011
576.48	1.298
576.68	1.532
576.88	1.845
577.09	2.167
577.29	2.694
577.49	3.596
577.69	4.604
577.90	6.025
578.10	7.769
578.30	10.892
578.50	14.861
578.71	18.594
578.91	22.986
579.11	28.059
579.31	33.671
579.52	39.830
579.72	44.424
579.92	50.342
580.12	54.747
580.33	59.138
580.53	64.438
580.73	68.098
580.93	72.118
581.13	75.130
581.34	79.261
581.54	80.355
581.74	82.809
581.94	85.913
582.15	87.563
582.35	88.327
582.55	89.007
582.75	89.813
582.95	91.643
583.16	90.640
583.36	93.167
583.56	92.971
583.76	94.234
583.96	91.972
584.17	92.973
584.37	92.783
584.57	92.875
584.77	92.055
584.97	92.507
585.18	92.243
585.38	92.075
585.58	92.117
585.78	92.742
585.98	92.639
586.19	92.860
586.39	91.681
586.59	92.072
586.79	92.598
586.99	91.085
587.20	91.892
587.40	91.957
587.60	93.675
587.80	92.409
588.00	91.399
588.20	93.819
588.41	93.237
588.61	91.602
588.81	92.472
589.01	91.791
589.21	92.695
589.41	92.161
589.62	92.785
589.82	92.777
590.02	93.389
590.22	93.852
590.42	92.617
590.62	92.370
590.83	92.491
591.03	92.646
591.23	93.823
591.43	94.509
591.63	92.873
591.83	93.452
592.03	94.149
592.24	94.594
592.44	93.485
592.64	92.147
592.84	92.674
593.04	93.470
593.24	92.243
593.44	92.852
593.65	92.307
593.85	93.228
594.05	92.183
594.25	93.456
594.45	92.978
594.65	94.227
594.85	94.068
595.06	94.066
595.26	93.326
595.46	93.559
595.66	93.533
595.86	91.527
596.06	92.330
596.26	91.636
596.46	92.810
596.66	92.045
596.87	91.641
597.07	91.720
597.27	91.729
597.47	92.992
597.67	92.440
597.87	91.673
598.07	92.279
598.27	91.489
598.47	92.081
598.67	92.065
598.88	91.412
599.08	91.312
599.28	90.882
599.48	89.974
599.68	90.559
599.88	90.808
600.08	90.817
600.28	91.905
600.48	90.629
600.68	91.418
600.88	92.025
601.09	92.934
601.29	92.022
601.49	91.555
601.69	91.611
601.89	91.399
602.09	91.493
602.29	90.773
602.49	90.903
602.69	91.682
602.89	92.504
603.09	90.986
603.29	92.617
603.49	91.546
603.69	91.502
603.90	91.940
604.10	91.271
604.30	91.635
604.50	91.723
604.70	91.912
604.90	91.724
605.10	91.873
605.30	92.766
605.50	92.430
605.70	91.814
605.90	92.822
606.10	90.919
606.30	91.549
606.50	91.828
606.70	91.743
606.90	92.539
607.10	92.455
607.30	90.798
607.50	92.089
607.70	91.693
607.90	91.789
608.10	92.052
608.30	92.233
608.50	90.198
608.70	90.733
608.90	90.458
609.11	90.709
609.31	90.761
609.51	91.403
609.71	92.665
609.91	90.967
610.11	91.072
610.31	90.740
610.51	92.099
610.71	91.321
610.91	91.451
611.11	92.152
611.31	91.002
611.51	91.581
611.71	90.945
611.91	90.958
612.11	92.113
612.31	91.230
612.51	90.433
612.71	89.539
612.91	90.949
613.11	89.505
613.31	89.105
613.51	90.143
613.71	90.060
613.91	90.001
614.11	90.617
614.31	90.338
614.50	90.940
614.70	91.527
614.90	91.368
615.10	92.435
615.30	91.566
615.50	91.772
615.70	92.198
615.90	91.743
616.10	90.938
616.30	91.941
616.50	91.797
616.70	92.273
616.90	93.069
617.10	91.716
617.30	91.503
617.50	90.804
617.70	90.134
617.90	91.128
618.10	90.945
618.30	91.374
618.50	91.790
618.70	92.510
618.90	93.022
619.10	93.031
619.30	92.675
619.49	93.465
619.69	92.263
619.89	92.318
620.09	93.066
620.29	92.510
620.49	91.942
620.69	92.280
620.89	92.490
621.09	92.517
621.29	92.419
621.49	91.709
621.69	91.755
621.89	90.531
622.09	90.475
622.29	91.229
622.48	91.287
622.68	91.070
622.88	91.441
623.08	90.538
623.28	90.643
623.48	90.450
623.68	90.825
623.88	91.716
624.08	91.172
624.28	91.510
624.48	91.661
624.67	92.418
624.87	92.332
625.07	92.185
625.27	92.970
625.47	92.296
625.67	92.504
625.87	91.631
626.07	92.182
626.27	92.489
626.47	92.702
626.66	91.618
626.86	92.912
627.06	91.267
627.26	91.910
627.46	91.230
627.66	92.553
627.86	92.843
628.06	91.502
628.25	92.565
628.45	92.080
628.65	91.389
628.85	91.873
629.05	90.899
629.25	92.042
629.45	91.476
629.65	92.143
629.84	91.576
630.04	92.179
630.24	90.894
630.44	91.645
630.64	92.276
630.84	91.924
631.04	92.972
631.23	93.768
631.43	92.580
631.63	92.911
631.83	92.442
632.03	92.524
632.23	91.602
632.42	91.071
632.62	91.343
632.82	92.347
633.02	93.612
633.22	93.821
633.42	93.349
633.62	92.266
633.81	92.834
634.01	92.577
634.21	91.556
634.41	91.180
634.61	91.017
634.80	91.433
635.00	90.661
635.20	88.458
635.40	88.687
635.60	87.350
635.80	85.059
635.99	83.612
636.19	80.365
636.39	79.387
636.59	75.708
636.79	72.272
636.98	68.388
637.18	64.745
637.38	59.632
637.58	55.129
