SpectraSuite Data File
++++++++++++++++++++++++++++++++++++
Date: Wed Feb 01 15:56:37 EET 2017
User: optolab
Dark Spectrum Present: Yes
Reference Spectrum Present: Yes
Number of Sampled Component Spectra: 1
Spectrometers: USB4C02475
Integration Time (usec): 100000 (USB4C02475)
Spectra Averaged: 1 (USB4C02475)
Boxcar Smoothing: 0 (USB4C02475)
Correct for Electrical Dark: No (USB4C02475)
Strobe/Lamp Enabled: No (USB4C02475)
Correct for Detector Non-linearity: No (USB4C02475)
Correct for Stray Light: No (USB4C02475)
Number of Pixels in Processed Spectrum: 3648
>>>>>Begin Processed Spectral Data<<<<<
344,91	2800,000
345,13	2800,000
345,35	2800,000
345,57	0,000
345,79	463,158
346,00	-1755,556
346,22	-1742,857
346,44	420,588
346,66	-375,000
346,87	-9300,000
347,09	369,697
347,31	-622,727
347,53	-333,333
347,74	249,231
347,96	415,152
348,18	921,053
348,40	300,000
348,61	870,588
348,83	304,762
349,05	272,549
349,27	-5500,000
349,48	588,462
349,70	-386,207
349,92	516,129
350,14	205,660
350,35	294,000
350,57	2450,000
350,79	620,000
351,01	-766,667
351,22	242,593
351,44	753,846
351,66	-428,000
351,87	-533,333
352,09	257,692
352,31	288,525
352,53	203,125
352,74	469,444
352,96	229,870
353,18	610,526
353,40	488,000
353,61	291,111
353,83	258,824
354,05	1181,818
354,26	2166,667
354,48	278,000
354,70	330,303
354,92	-293,103
355,13	201,010
355,35	345,455
355,57	695,833
355,78	208,434
356,00	-3025,000
356,22	415,385
356,44	6450,000
356,65	284,091
356,87	415,385
357,09	437,500
357,30	277,778
357,52	277,586
357,74	750,000
357,95	358,974
358,17	155,738
358,39	314,516
358,60	400,000
358,82	466,667
359,04	559,259
359,26	380,000
359,47	9400,000
359,69	297,500
359,91	403,030
360,12	528,571
360,34	416,667
360,56	-111,111
360,77	3025,000
360,99	609,524
361,21	238,000
361,42	4550,000
361,64	206,122
361,86	304,615
362,07	-477,419
362,29	240,000
362,51	-564,706
362,72	528,000
362,94	461,765
363,16	258,140
363,37	-992,857
363,59	469,231
363,81	404,545
364,02	538,889
364,24	654,167
364,46	4566,667
364,67	1100,000
364,89	1757,143
365,11	147,143
365,32	510,345
365,54	377,778
365,76	236,735
365,97	361,765
366,19	251,724
366,41	645,455
366,62	396,296
366,84	244,186
367,05	340,816
367,27	1100,000
367,49	-546,154
367,70	764,706
367,92	288,525
368,14	293,750
368,35	-11300,000
368,57	372,000
368,79	344,828
369,00	289,130
369,22	-1450,000
369,43	207,059
369,65	246,774
369,87	429,730
370,08	207,229
370,30	301,786
370,51	245,902
370,73	288,889
370,95	264,516
371,16	271,429
371,38	500,000
371,60	1937,500
371,81	196,875
372,03	813,333
372,24	466,667
372,46	239,623
372,68	175,714
372,89	257,576
373,11	361,538
373,32	431,818
373,54	-969,231
373,76	915,385
373,97	733,333
374,19	545,455
374,40	237,500
374,62	-2966,667
374,84	4125,000
375,05	414,286
375,27	310,000
375,48	-12100,000
375,70	132,000
375,92	192,857
376,13	356,250
376,35	246,575
376,56	931,250
376,78	218,056
376,99	457,143
377,21	287,500
377,43	224,242
377,64	217,391
377,86	386,207
378,07	271,795
378,29	-1625,000
378,51	577,419
378,72	291,667
378,94	-1200,000
379,15	333,333
379,37	776,471
379,58	209,231
379,80	666,667
380,01	543,750
380,23	227,451
380,45	1900,000
380,66	3566,667
380,88	238,636
381,09	235,714
381,31	151,111
381,52	229,412
381,74	1622,222
381,95	636,364
382,17	526,923
382,39	504,762
382,60	167,347
382,82	289,744
383,03	275,000
383,25	251,613
383,46	309,091
383,68	337,037
383,89	465,000
384,11	274,194
384,32	-3433,333
384,54	650,000
384,76	-4000,000
384,97	406,061
385,19	544,828
385,40	280,392
385,62	212,281
385,83	328,571
386,05	198,039
386,26	304,000
386,48	178,161
386,69	325,000
386,91	455,000
387,12	200,000
387,34	182,759
387,55	214,516
387,77	378,125
387,98	373,077
388,20	206,522
388,41	264,706
388,63	7300,000
388,84	218,033
389,06	285,714
389,27	542,105
389,49	408,333
389,70	285,714
389,92	303,333
390,13	181,633
390,35	211,765
390,56	272,222
390,78	492,593
390,99	920,000
391,21	442,105
391,42	304,444
391,64	319,512
391,85	182,759
392,07	122,727
392,28	208,000
392,50	227,273
392,71	-725,000
392,93	253,846
393,14	436,111
393,36	216,327
393,57	107,519
393,79	733,333
394,00	265,957
394,22	154,795
394,43	162,651
394,65	260,465
394,86	1000,000
395,08	642,857
395,29	149,057
395,50	400,000
395,72	705,556
395,93	657,143
396,15	176,056
396,36	225,000
396,58	208,333
396,79	342,500
397,01	204,000
397,22	241,667
397,44	212,121
397,65	143,860
397,87	330,952
398,08	228,571
398,29	346,875
398,51	221,429
398,72	219,512
398,94	218,462
399,15	334,286
399,37	175,439
399,58	162,637
399,80	490,909
400,01	264,815
400,22	323,810
400,44	145,679
400,65	339,286
400,87	148,529
401,08	132,857
401,30	228,261
401,51	192,982
401,72	361,538
401,94	144,304
402,15	540,000
402,37	152,941
402,58	577,778
402,80	265,714
403,01	204,225
403,22	827,273
403,44	237,681
403,65	103,571
403,87	214,286
404,08	479,487
404,30	134,118
404,51	-1600,000
404,72	148,571
404,94	174,510
405,15	120,000
405,37	174,684
405,58	169,412
405,79	201,220
406,01	260,976
406,22	198,276
406,44	297,872
406,65	217,544
406,86	168,750
407,08	125,316
407,29	116,505
407,51	171,951
407,72	163,889
407,93	152,174
408,15	99,145
408,36	230,233
408,58	154,639
408,79	122,500
409,00	173,958
409,22	180,952
409,43	134,177
409,64	100,000
409,86	76,101
410,07	102,308
410,29	95,522
410,50	134,752
410,71	146,429
410,93	87,898
411,14	136,434
411,35	102,381
411,57	115,789
411,78	107,813
412,00	115,924
412,21	116,774
412,42	78,307
412,64	81,116
412,85	99,485
413,06	127,439
413,28	80,631
413,49	94,787
413,70	97,826
413,92	102,372
414,13	77,593
414,34	85,824
414,56	91,259
414,77	134,599
414,98	86,577
415,20	89,273
415,41	96,034
415,63	78,607
415,84	91,667
416,05	90,385
416,27	81,912
416,48	92,416
416,69	81,637
416,91	82,162
417,12	92,781
417,33	88,632
417,55	85,111
417,76	93,224
417,97	86,515
418,19	79,523
418,40	95,106
418,61	92,963
418,83	83,091
419,04	81,073
419,25	82,710
419,46	87,068
419,68	78,889
419,89	79,732
420,10	80,408
420,32	75,965
420,53	80,735
420,74	85,642
420,96	86,125
421,17	80,947
421,38	77,476
421,60	82,119
421,81	85,877
422,02	84,326
422,23	77,934
422,45	74,425
422,66	77,303
422,87	78,640
423,09	76,966
423,30	83,100
423,51	83,386
423,73	74,194
423,94	74,930
424,15	76,667
424,36	76,160
424,58	72,625
424,79	76,140
425,00	75,542
425,22	71,205
425,43	71,214
425,64	72,957
425,85	70,294
426,07	70,140
426,28	72,105
426,49	68,920
426,71	66,468
426,92	63,982
427,13	61,099
427,34	64,255
427,56	63,405
427,77	57,215
427,98	58,147
428,19	56,224
428,41	58,218
428,62	55,506
428,83	52,305
429,04	52,479
429,26	52,405
429,47	50,380
429,68	49,861
429,89	47,980
430,11	48,667
430,32	47,870
430,53	46,496
430,74	49,385
430,96	48,489
431,17	47,769
431,38	50,559
431,59	50,507
431,81	53,220
432,02	52,343
432,23	54,568
432,44	55,873
432,66	56,930
432,87	57,950
433,08	56,424
433,29	57,216
433,51	56,488
433,72	56,902
433,93	55,847
434,14	53,317
434,35	54,795
434,57	51,083
434,78	49,590
434,99	48,197
435,20	43,906
435,42	43,040
435,63	39,523
435,84	38,017
436,05	34,337
436,26	31,390
436,48	29,829
436,69	27,961
436,90	25,612
437,11	23,941
437,32	21,863
437,54	20,803
437,75	18,158
437,96	17,460
438,17	15,430
438,38	13,809
438,60	12,758
438,81	11,290
439,02	11,301
439,23	9,726
439,44	9,284
439,66	8,811
439,87	8,064
440,08	7,315
440,29	6,434
440,50	6,413
440,72	6,042
440,93	5,460
441,14	4,848
441,35	4,221
441,56	3,437
441,77	3,175
441,99	2,485
442,20	2,067
442,41	1,408
442,62	1,180
442,83	1,283
443,04	1,049
443,26	0,976
443,47	1,250
443,68	1,003
443,89	0,828
444,10	0,769
444,31	0,686
444,53	0,824
444,74	0,735
444,95	0,784
445,16	0,761
445,37	0,719
445,58	0,824
445,80	0,757
446,01	0,865
446,22	0,528
446,43	0,690
446,64	0,829
446,85	0,696
447,06	0,977
447,28	0,741
447,49	0,670
447,70	0,999
447,91	0,682
448,12	0,459
448,33	0,705
448,54	0,874
448,76	0,749
448,97	0,945
449,18	0,520
449,39	0,859
449,60	0,979
449,81	0,947
450,02	0,913
450,23	0,883
450,45	0,800
450,66	0,787
450,87	0,827
451,08	0,582
451,29	1,073
451,50	0,795
451,71	0,819
451,92	0,681
452,13	0,362
452,35	1,135
452,56	0,877
452,77	0,905
452,98	0,645
453,19	0,582
453,40	0,516
453,61	0,946
453,82	0,580
454,03	0,730
454,25	1,028
454,46	0,707
454,67	1,204
454,88	1,073
455,09	0,860
455,30	0,898
455,51	0,894
455,72	0,940
455,93	0,748
456,14	0,924
456,35	0,938
456,56	0,857
456,78	0,925
456,99	0,993
457,20	0,967
457,41	0,561
457,62	0,776
457,83	0,798
458,04	0,866
458,25	0,870
458,46	0,654
458,67	0,910
458,88	1,052
459,09	0,620
459,30	0,825
459,51	0,882
459,73	0,463
459,94	1,142
460,15	0,840
460,36	0,742
460,57	0,525
460,78	0,655
460,99	0,511
461,20	0,680
461,41	0,642
461,62	0,460
461,83	0,815
462,04	0,630
462,25	0,936
462,46	0,670
462,67	0,588
462,88	0,722
463,09	0,762
463,30	0,655
463,51	0,659
463,72	0,728
463,93	0,588
464,15	0,622
464,36	0,499
464,57	0,608
464,78	0,398
464,99	0,602
465,20	0,578
465,41	0,537
465,62	0,715
465,83	0,605
466,04	0,625
466,25	0,682
466,46	0,711
466,67	0,606
466,88	0,603
467,09	0,758
467,30	0,563
467,51	0,809
467,72	0,764
467,93	0,771
468,14	0,827
468,35	1,183
468,56	0,973
468,77	1,239
468,98	1,565
469,19	1,945
469,40	2,107
469,61	2,543
469,82	2,843
470,03	3,523
470,24	4,220
470,45	4,657
470,66	5,169
470,87	5,676
471,08	6,714
471,29	7,575
471,50	8,645
471,71	9,511
471,92	11,173
472,13	12,522
472,34	13,704
472,55	15,455
472,76	17,411
472,97	19,294
473,18	20,794
473,39	22,250
473,60	24,343
473,81	26,394
474,01	28,082
474,22	30,499
474,43	32,544
474,64	34,877
474,85	37,320
475,06	39,622
475,27	42,323
475,48	44,776
475,69	47,009
475,90	49,300
476,11	51,171
476,32	53,338
476,53	55,042
476,74	56,756
476,95	58,549
477,16	58,941
477,37	59,263
477,58	61,337
477,79	61,974
478,00	62,235
478,21	63,177
478,41	62,164
478,62	62,817
478,83	61,242
479,04	60,977
479,25	59,020
479,46	58,348
479,67	57,549
479,88	57,106
480,09	57,075
480,30	56,363
480,51	56,085
480,72	55,539
480,93	55,039
481,14	56,598
481,34	56,317
481,55	57,485
481,76	58,350
481,97	59,816
482,18	61,183
482,39	63,063
482,60	63,476
482,81	65,224
483,02	66,251
483,23	69,385
483,44	70,940
483,65	71,853
483,85	74,247
484,06	75,148
484,27	76,204
484,48	76,669
484,69	77,207
484,90	77,628
485,11	78,031
485,32	77,876
485,53	76,608
485,73	77,237
485,94	76,419
486,15	75,228
486,36	74,780
486,57	74,420
486,78	74,266
486,99	74,174
487,20	73,511
487,41	73,304
487,61	74,561
487,82	73,522
488,03	74,741
488,24	76,764
488,45	77,114
488,66	77,465
488,87	78,633
489,08	78,667
489,28	79,386
489,49	80,390
489,70	80,157
489,91	81,480
490,12	82,143
490,33	80,926
490,54	81,836
490,74	81,915
490,95	80,229
491,16	81,191
491,37	81,613
491,58	81,212
491,79	82,536
492,00	82,584
492,20	83,220
492,41	82,565
492,62	82,792
492,83	82,919
493,04	83,333
493,25	83,528
493,45	83,278
493,66	83,205
493,87	83,021
494,08	81,488
494,29	80,084
494,50	80,240
494,70	79,282
494,91	80,035
495,12	77,866
495,33	78,008
495,54	77,468
495,75	76,309
495,95	75,901
496,16	76,193
496,37	74,997
496,58	74,905
496,79	75,599
496,99	74,362
497,20	73,824
497,41	73,502
497,62	72,399
497,83	72,416
498,04	70,595
498,24	70,389
498,45	69,564
498,66	69,573
498,87	68,796
499,08	67,852
499,28	68,586
499,49	68,368
499,70	68,027
499,91	68,154
500,12	67,660
500,32	68,074
500,53	67,962
500,74	67,811
500,95	67,972
501,15	68,133
501,36	68,526
501,57	68,487
501,78	68,851
501,99	68,716
502,19	69,985
502,40	70,548
502,61	71,737
502,82	72,712
503,02	72,806
503,23	74,144
503,44	76,020
503,65	75,900
503,86	76,370
504,06	77,385
504,27	78,310
504,48	79,632
504,69	80,002
504,89	80,051
505,10	80,719
505,31	81,520
505,52	79,112
505,72	79,678
505,93	79,287
506,14	79,203
506,35	77,463
506,55	76,498
506,76	74,268
506,97	73,225
507,18	72,632
507,38	70,731
507,59	68,136
507,80	67,685
508,01	65,729
508,21	63,385
508,42	62,431
508,63	60,540
508,84	59,174
509,04	58,085
509,25	55,833
509,46	54,586
509,67	53,125
509,87	52,222
510,08	49,802
510,29	49,050
510,49	47,956
510,70	46,587
510,91	44,695
511,12	43,706
511,32	42,484
511,53	40,745
511,74	40,371
511,94	39,588
512,15	38,514
512,36	37,142
512,57	36,122
512,77	35,260
512,98	33,466
513,19	32,839
513,39	31,462
513,60	29,973
513,81	29,520
514,01	28,320
514,22	27,154
514,43	25,703
514,64	24,469
514,84	23,287
515,05	22,077
515,26	20,673
515,46	19,922
515,67	18,160
515,88	16,790
516,08	15,778
516,29	14,388
516,50	12,762
516,70	11,286
516,91	10,276
517,12	8,709
517,32	7,870
517,53	6,746
517,74	5,847
517,95	4,880
518,15	4,208
518,36	3,203
518,57	2,952
518,77	2,265
518,98	2,011
519,19	1,511
519,39	1,267
519,60	1,214
519,80	1,080
520,01	0,881
520,22	0,856
520,42	0,859
520,63	0,704
520,84	0,590
521,04	0,712
521,25	0,793
521,46	0,817
521,66	0,708
521,87	0,545
522,08	0,798
522,28	0,768
522,49	0,497
522,70	0,692
522,90	0,782
523,11	0,663
523,31	0,768
523,52	0,617
523,73	0,859
523,93	0,769
524,14	0,558
524,35	0,589
524,55	0,781
524,76	0,515
524,97	0,728
525,17	0,734
525,38	0,518
525,58	0,670
525,79	0,517
526,00	0,584
526,20	0,561
526,41	0,536
526,61	0,637
526,82	0,650
527,03	0,537
527,23	0,609
527,44	0,712
527,64	0,742
527,85	0,591
528,06	0,678
528,26	0,872
528,47	0,618
528,68	0,696
528,88	0,697
529,09	0,571
529,29	0,627
529,50	0,488
529,70	0,735
529,91	0,710
530,12	0,712
530,32	0,599
530,53	0,486
530,73	0,817
530,94	0,728
531,15	0,697
531,35	0,654
531,56	0,716
531,76	0,591
531,97	0,742
532,17	0,649
532,38	0,513
532,59	0,673
532,79	0,814
533,00	0,810
533,20	0,646
533,41	0,600
533,61	0,798
533,82	0,840
534,03	0,536
534,23	0,865
534,44	0,571
534,64	0,791
534,85	0,715
535,05	0,561
535,26	0,472
535,46	0,749
535,67	0,626
535,88	0,587
536,08	0,716
536,29	0,560
536,49	0,739
536,70	0,616
536,90	0,750
537,11	0,649
537,31	0,565
537,52	0,636
537,72	0,661
537,93	0,742
538,13	0,761
538,34	0,851
538,55	0,919
538,75	0,760
538,96	1,030
539,16	0,726
539,37	0,875
539,57	0,775
539,78	0,858
539,98	0,845
540,19	0,984
540,39	0,900
540,60	0,915
540,80	0,991
541,01	1,114
541,21	1,332
541,42	1,598
541,62	1,614
541,83	1,709
542,03	2,166
542,24	2,033
542,44	2,832
542,65	3,215
542,85	3,854
543,06	4,370
543,26	4,892
543,47	5,782
543,67	7,079
543,88	8,195
544,08	9,288
544,29	10,706
544,49	12,035
544,70	14,052
544,90	15,790
545,11	17,468
545,31	19,521
545,52	21,876
545,72	23,958
545,93	26,085
546,13	28,750
546,34	30,915
546,54	33,434
546,75	36,492
546,95	38,185
547,15	40,422
547,36	42,618
547,56	43,469
547,77	45,460
547,97	47,710
548,18	48,687
548,38	50,047
548,59	51,287
548,79	52,842
549,00	53,808
549,20	55,758
549,41	56,222
549,61	57,432
549,81	59,191
550,02	60,502
550,22	61,771
550,43	64,046
550,63	65,798
550,84	67,215
551,04	69,274
551,25	70,534
551,45	72,044
551,65	73,682
551,86	76,626
552,06	76,746
552,27	78,462
552,47	79,163
552,68	79,837
552,88	79,548
553,08	80,535
553,29	81,083
553,49	79,881
553,70	79,913
553,90	79,763
554,11	79,351
554,31	78,954
554,51	77,994
554,72	77,591
554,92	77,523
555,13	77,131
555,33	76,851
555,53	77,809
555,74	76,225
555,94	76,390
556,15	76,967
556,35	77,107
556,56	77,776
556,76	77,746
556,96	77,689
557,17	78,328
557,37	78,883
557,58	80,191
557,78	80,942
557,98	81,300
558,19	81,537
558,39	82,352
558,59	83,023
558,80	83,699
559,00	83,912
559,21	84,366
559,41	84,325
559,61	84,356
559,82	85,827
560,02	85,706
560,23	85,827
560,43	86,243
560,63	85,622
560,84	87,231
561,04	87,615
561,24	86,901
561,45	88,162
561,65	88,618
561,85	88,106
562,06	88,060
562,26	89,544
562,47	88,469
562,67	88,415
562,87	89,656
563,08	89,505
563,28	88,300
563,48	88,457
563,69	89,854
563,89	89,797
564,09	89,351
564,30	89,788
564,50	89,731
564,70	90,165
564,91	88,943
565,11	90,054
565,31	88,893
565,52	88,238
565,72	88,429
565,92	89,455
566,13	87,822
566,33	88,026
566,53	87,780
566,74	87,356
566,94	85,350
567,14	84,254
567,35	83,110
567,55	82,500
567,75	82,301
567,96	80,621
568,16	78,925
568,36	77,474
568,57	76,958
568,77	75,037
568,97	73,938
569,18	74,045
569,38	74,003
569,58	72,207
569,79	71,975
569,99	71,239
570,19	71,296
570,39	71,889
570,60	70,214
570,80	70,789
571,00	71,401
571,21	71,152
571,41	71,368
571,61	70,907
571,82	71,295
572,02	70,192
572,22	70,898
572,42	70,095
572,63	68,555
572,83	67,069
573,03	66,449
573,24	65,709
573,44	63,742
573,64	62,086
573,84	60,365
574,05	58,844
574,25	56,701
574,45	54,354
574,66	52,013
574,86	51,048
575,06	49,195
575,26	47,637
575,47	46,609
575,67	45,983
575,87	45,012
576,07	44,150
576,28	43,997
576,48	43,121
576,68	42,129
576,88	41,860
577,09	41,336
577,29	40,865
577,49	40,720
577,69	39,748
577,90	39,221
578,10	38,121
578,30	37,403
578,50	36,728
578,71	36,143
578,91	35,105
579,11	34,538
579,31	34,202
579,52	33,876
579,72	32,669
579,92	32,345
580,12	32,066
580,33	31,865
580,53	31,264
580,73	31,093
580,93	31,194
581,13	31,110
581,34	31,054
581,54	30,415
581,74	29,772
581,94	30,386
582,15	29,734
582,35	29,607
582,55	29,614
582,75	29,012
582,95	28,727
583,16	27,537
583,36	26,732
583,56	25,584
583,76	23,775
583,96	22,658
584,17	20,961
584,37	19,886
584,57	18,043
584,77	17,442
584,97	15,690
585,18	14,637
585,38	13,166
585,58	11,841
585,78	10,636
585,98	9,169
586,19	8,411
586,39	7,209
586,59	6,288
586,79	5,297
586,99	4,654
587,20	4,009
587,40	3,439
587,60	2,804
587,80	2,607
588,00	2,500
588,20	1,676
588,41	1,608
588,61	1,207
588,81	1,046
589,01	1,041
589,21	0,899
589,41	0,744
589,62	0,685
589,82	0,434
590,02	0,494
590,22	0,790
590,42	0,490
590,62	0,436
590,83	0,544
591,03	0,588
591,23	0,386
591,43	0,779
591,63	0,576
591,83	0,458
592,03	0,577
592,24	0,499
592,44	0,570
592,64	0,563
592,84	0,477
593,04	0,479
593,24	0,439
593,44	0,543
593,65	0,626
593,85	0,524
594,05	0,237
594,25	0,621
594,45	0,370
594,65	0,419
594,85	0,501
595,06	0,369
595,26	0,436
595,46	0,331
595,66	0,361
595,86	0,686
596,06	0,457
596,26	0,326
596,46	0,455
596,66	0,536
596,87	0,520
597,07	0,465
597,27	0,484
597,47	0,380
597,67	0,698
597,87	0,547
598,07	0,328
598,27	0,664
598,47	0,639
598,67	0,474
598,88	0,409
599,08	0,573
599,28	0,412
599,48	0,515
599,68	0,514
599,88	0,435
600,08	0,513
600,28	0,722
600,48	0,384
600,68	0,425
600,88	0,520
601,09	0,395
601,29	0,503
601,49	0,511
601,69	0,622
601,89	0,333
602,09	0,433
602,29	0,575
602,49	0,494
602,69	0,489
602,89	0,470
603,09	0,402
603,29	0,470
603,49	0,544
603,69	0,495
603,90	0,553
604,10	0,576
604,30	0,453
604,50	0,513
604,70	0,629
604,90	0,420
605,10	0,432
605,30	0,409
605,50	0,543
605,70	0,488
605,90	0,485
606,10	0,468
606,30	0,470
606,50	0,749
606,70	0,531
606,90	0,478
607,10	0,405
607,30	0,486
607,50	0,613
607,70	0,599
607,90	0,559
608,10	0,432
608,30	0,412
608,50	0,746
608,70	0,619
608,90	0,530
609,11	0,692
609,31	0,528
609,51	0,526
609,71	0,727
609,91	0,381
610,11	0,549
610,31	0,361
610,51	0,624
610,71	0,336
610,91	0,452
611,11	0,521
611,31	0,508
611,51	0,479
611,71	0,555
611,91	0,373
612,11	0,492
612,31	0,674
612,51	0,567
612,71	0,630
612,91	0,477
613,11	0,659
613,31	0,708
613,51	0,727
613,71	0,539
613,91	0,686
614,11	0,717
614,31	0,840
614,50	1,071
614,70	1,020
614,90	1,076
615,10	1,095
615,30	1,256
615,50	1,428
615,70	1,452
615,90	2,020
616,10	2,154
616,30	2,510
616,50	2,811
616,70	3,248
616,90	4,010
617,10	4,190
617,30	4,856
617,50	5,681
617,70	6,397
617,90	7,249
618,10	7,945
618,30	9,085
618,50	10,171
618,70	11,336
618,90	12,668
619,10	13,730
619,30	15,245
619,49	17,189
619,69	18,596
619,89	19,927
620,09	22,034
620,29	23,475
620,49	25,149
620,69	26,999
620,89	29,003
621,09	30,317
621,29	31,533
621,49	32,822
621,69	34,560
621,89	36,015
622,09	37,090
622,29	38,938
622,48	40,194
622,68	40,553
622,88	41,901
623,08	43,293
623,28	44,290
623,48	45,182
623,68	47,079
623,88	47,837
624,08	48,791
624,28	50,416
624,48	51,639
624,67	52,892
624,87	54,502
625,07	56,048
625,27	57,880
625,47	59,928
625,67	61,529
625,87	62,334
626,07	63,486
626,27	65,753
626,47	68,325
626,66	69,676
626,86	70,961
627,06	74,067
627,26	73,883
627,46	76,082
627,66	77,351
627,86	78,946
628,06	80,737
628,25	80,794
628,45	82,639
628,65	83,960
628,85	83,675
629,05	84,845
629,25	84,854
629,45	85,569
629,65	86,439
629,84	86,108
630,04	87,213
630,24	87,271
630,44	86,105
630,64	87,334
630,84	87,994
631,04	86,128
631,23	86,969
631,43	87,065
631,63	86,433
631,83	86,537
632,03	86,251
632,23	85,776
632,42	85,589
632,62	85,343
632,82	84,990
633,02	84,751
633,22	85,528
633,42	84,513
633,62	84,645
633,81	84,017
634,01	82,734
634,21	82,435
